19/06/2019 14:37
Longitud de onda (nm)	10mm Absorbance
//WLCalib: Shift 	0,23667	
//WLCalib: 261S 	-0,08000	
//WLCalib: 362S 	-0,58000	
//WLCalib: 484S 	-0,83000	
//WLCalib: 529S 	-0,65000	
//WLCalib: 823S 	-0,29000	
//QSpecEnd: 
190,0	0,170
190,5	0,199
191,0	0,223
191,5	0,245
192,0	0,261
192,5	0,278
193,0	0,288
193,5	0,297
194,0	0,302
194,5	0,302
195,0	0,301
195,5	0,300
196,0	0,300
196,5	0,296
197,0	0,294
197,5	0,290
198,0	0,287
198,5	0,281
199,0	0,274
199,5	0,264
200,0	0,255
200,5	0,242
201,0	0,232
201,5	0,220
202,0	0,210
202,5	0,202
203,0	0,195
203,5	0,189
204,0	0,183
204,5	0,178
205,0	0,173
205,5	0,168
206,0	0,164
206,5	0,158
207,0	0,154
207,5	0,149
208,0	0,146
208,5	0,143
209,0	0,138
209,5	0,135
210,0	0,131
210,5	0,126
211,0	0,122
211,5	0,117
212,0	0,115
212,5	0,112
213,0	0,110
213,5	0,107
214,0	0,105
214,5	0,103
215,0	0,101
215,5	0,098
216,0	0,095
216,5	0,092
217,0	0,090
217,5	0,087
218,0	0,085
218,5	0,082
219,0	0,080
219,5	0,078
220,0	0,076
220,5	0,074
221,0	0,071
221,5	0,069
222,0	0,067
222,5	0,065
223,0	0,063
223,5	0,061
224,0	0,060
224,5	0,059
225,0	0,057
225,5	0,055
226,0	0,053
226,5	0,051
227,0	0,050
227,5	0,049
228,0	0,048
228,5	0,048
229,0	0,048
229,5	0,047
230,0	0,046
230,5	0,046
231,0	0,044
231,5	0,044
232,0	0,043
232,5	0,042
233,0	0,042
233,5	0,041
234,0	0,041
234,5	0,041
235,0	0,041
235,5	0,041
236,0	0,041
236,5	0,041
237,0	0,041
237,5	0,040
238,0	0,040
238,5	0,040
239,0	0,040
239,5	0,040
240,0	0,040
240,5	0,040
241,0	0,040
241,5	0,040
242,0	0,041
242,5	0,041
243,0	0,041
243,5	0,041
244,0	0,040
244,5	0,040
245,0	0,040
245,5	0,040
246,0	0,040
246,5	0,041
247,0	0,041
247,5	0,041
248,0	0,042
248,5	0,042
249,0	0,041
249,5	0,041
250,0	0,040
250,5	0,040
251,0	0,040
251,5	0,040
252,0	0,040
252,5	0,041
253,0	0,041
253,5	0,041
254,0	0,040
254,5	0,040
255,0	0,040
255,5	0,040
256,0	0,040
256,5	0,041
257,0	0,041
257,5	0,041
258,0	0,041
258,5	0,041
259,0	0,041
259,5	0,042
260,0	0,042
260,5	0,043
261,0	0,043
261,5	0,043
262,0	0,043
262,5	0,042
263,0	0,042
263,5	0,041
264,0	0,041
264,5	0,041
265,0	0,042
265,5	0,042
266,0	0,042
266,5	0,042
267,0	0,042
267,5	0,042
268,0	0,041
268,5	0,041
269,0	0,041
269,5	0,041
270,0	0,041
270,5	0,041
271,0	0,041
271,5	0,041
272,0	0,040
272,5	0,040
273,0	0,039
273,5	0,039
274,0	0,038
274,5	0,038
275,0	0,038
275,5	0,038
276,0	0,038
276,5	0,038
277,0	0,038
277,5	0,037
278,0	0,037
278,5	0,036
279,0	0,036
279,5	0,036
280,0	0,035
280,5	0,036
281,0	0,036
281,5	0,036
282,0	0,036
282,5	0,035
283,0	0,035
283,5	0,035
284,0	0,035
284,5	0,034
285,0	0,034
285,5	0,034
286,0	0,034
286,5	0,034
287,0	0,034
287,5	0,034
288,0	0,034
288,5	0,033
289,0	0,033
289,5	0,033
290,0	0,033
290,5	0,032
291,0	0,033
291,5	0,033
292,0	0,033
292,5	0,033
293,0	0,032
293,5	0,032
294,0	0,032
294,5	0,032
295,0	0,032
295,5	0,032
296,0	0,032
296,5	0,032
297,0	0,032
297,5	0,032
298,0	0,032
298,5	0,032
299,0	0,031
299,5	0,031
300,0	0,031
300,5	0,031
301,0	0,031
301,5	0,031
302,0	0,031
302,5	0,031
303,0	0,030
303,5	0,030
304,0	0,030
304,5	0,030
305,0	0,030
305,5	0,030
306,0	0,030
306,5	0,030
307,0	0,030
307,5	0,030
308,0	0,030
308,5	0,030
309,0	0,029
309,5	0,029
310,0	0,029
310,5	0,029
311,0	0,029
311,5	0,029
312,0	0,029
312,5	0,028
313,0	0,028
313,5	0,028
314,0	0,028
314,5	0,028
315,0	0,028
315,5	0,028
316,0	0,028
316,5	0,028
317,0	0,028
317,5	0,028
318,0	0,028
318,5	0,028
319,0	0,028
319,5	0,028
320,0	0,028
320,5	0,028
321,0	0,028
321,5	0,027
322,0	0,027
322,5	0,027
323,0	0,027
323,5	0,027
324,0	0,027
324,5	0,027
325,0	0,028
325,5	0,028
326,0	0,028
326,5	0,027
327,0	0,027
327,5	0,027
328,0	0,027
328,5	0,026
329,0	0,026
329,5	0,027
330,0	0,027
330,5	0,027
331,0	0,027
331,5	0,027
332,0	0,027
332,5	0,027
333,0	0,027
333,5	0,027
334,0	0,027
334,5	0,027
335,0	0,027
335,5	0,027
336,0	0,026
336,5	0,027
337,0	0,026
337,5	0,026
338,0	0,026
338,5	0,026
339,0	0,026
339,5	0,026
340,0	0,026
340,5	0,026
341,0	0,026
341,5	0,026
342,0	0,026
342,5	0,026
343,0	0,026
343,5	0,026
344,0	0,026
344,5	0,026
345,0	0,026
345,5	0,026
346,0	0,026
346,5	0,026
347,0	0,026
347,5	0,026
348,0	0,026
348,5	0,026
349,0	0,026
349,5	0,026
350,0	0,026
350,5	0,027
351,0	0,026
351,5	0,027
352,0	0,026
352,5	0,026
353,0	0,026
353,5	0,025
354,0	0,025
354,5	0,025
355,0	0,025
355,5	0,025
356,0	0,025
356,5	0,025
357,0	0,025
357,5	0,026
358,0	0,026
358,5	0,026
359,0	0,026
359,5	0,026
360,0	0,026
360,5	0,026
361,0	0,026
361,5	0,026
362,0	0,025
362,5	0,025
363,0	0,025
363,5	0,026
364,0	0,026
364,5	0,026
365,0	0,026
365,5	0,026
366,0	0,026
366,5	0,026
367,0	0,025
367,5	0,025
368,0	0,025
368,5	0,025
369,0	0,025
369,5	0,025
370,0	0,025
370,5	0,025
371,0	0,025
371,5	0,025
372,0	0,025
372,5	0,025
373,0	0,025
373,5	0,026
374,0	0,025
374,5	0,025
375,0	0,025
375,5	0,025
376,0	0,025
376,5	0,025
377,0	0,025
377,5	0,025
378,0	0,024
378,5	0,024
379,0	0,024
379,5	0,024
380,0	0,024
380,5	0,024
381,0	0,024
381,5	0,025
382,0	0,025
382,5	0,025
383,0	0,025
383,5	0,025
384,0	0,025
384,5	0,025
385,0	0,025
385,5	0,025
386,0	0,025
386,5	0,025
387,0	0,025
387,5	0,025
388,0	0,025
388,5	0,024
389,0	0,024
389,5	0,024
390,0	0,024
390,5	0,024
391,0	0,024
391,5	0,024
392,0	0,024
392,5	0,024
393,0	0,024
393,5	0,024
394,0	0,024
394,5	0,025
395,0	0,025
395,5	0,025
396,0	0,025
396,5	0,025
397,0	0,025
397,5	0,025
398,0	0,025
398,5	0,025
399,0	0,025
399,5	0,025
400,0	0,024
400,5	0,024
401,0	0,024
401,5	0,024
402,0	0,024
402,5	0,023
403,0	0,024
403,5	0,024
404,0	0,024
404,5	0,024
405,0	0,024
405,5	0,024
406,0	0,024
406,5	0,024
407,0	0,025
407,5	0,025
408,0	0,025
408,5	0,024
409,0	0,025
409,5	0,024
410,0	0,024
410,5	0,024
411,0	0,024
411,5	0,023
412,0	0,023
412,5	0,023
413,0	0,023
413,5	0,023
414,0	0,023
414,5	0,023
415,0	0,023
415,5	0,023
416,0	0,023
416,5	0,023
417,0	0,023
417,5	0,023
418,0	0,023
418,5	0,023
419,0	0,023
419,5	0,023
420,0	0,023
420,5	0,024
421,0	0,024
421,5	0,024
422,0	0,024
422,5	0,024
423,0	0,024
423,5	0,024
424,0	0,024
424,5	0,024
425,0	0,024
425,5	0,024
426,0	0,024
426,5	0,024
427,0	0,024
427,5	0,024
428,0	0,023
428,5	0,023
429,0	0,023
429,5	0,023
430,0	0,024
430,5	0,024
431,0	0,024
431,5	0,024
432,0	0,024
432,5	0,023
433,0	0,023
433,5	0,023
434,0	0,023
434,5	0,023
435,0	0,023
435,5	0,023
436,0	0,023
436,5	0,023
437,0	0,023
437,5	0,024
438,0	0,024
438,5	0,024
439,0	0,024
439,5	0,024
440,0	0,024
440,5	0,024
441,0	0,024
441,5	0,024
442,0	0,024
442,5	0,024
443,0	0,023
443,5	0,023
444,0	0,023
444,5	0,023
445,0	0,023
445,5	0,023
446,0	0,023
446,5	0,023
447,0	0,023
447,5	0,023
448,0	0,023
448,5	0,023
449,0	0,023
449,5	0,024
450,0	0,024
450,5	0,024
451,0	0,023
451,5	0,023
452,0	0,023
452,5	0,022
453,0	0,022
453,5	0,022
454,0	0,022
454,5	0,023
455,0	0,023
455,5	0,023
456,0	0,023
456,5	0,023
457,0	0,023
457,5	0,023
458,0	0,023
458,5	0,023
459,0	0,023
459,5	0,023
460,0	0,023
460,5	0,024
461,0	0,024
461,5	0,024
462,0	0,024
462,5	0,023
463,0	0,023
463,5	0,022
464,0	0,022
464,5	0,022
465,0	0,023
465,5	0,023
466,0	0,023
466,5	0,024
467,0	0,024
467,5	0,024
468,0	0,023
468,5	0,024
469,0	0,023
469,5	0,023
470,0	0,023
470,5	0,023
471,0	0,023
471,5	0,023
472,0	0,023
472,5	0,023
473,0	0,022
473,5	0,022
474,0	0,022
474,5	0,023
475,0	0,023
475,5	0,023
476,0	0,023
476,5	0,023
477,0	0,023
477,5	0,022
478,0	0,022
478,5	0,022
479,0	0,022
479,5	0,022
480,0	0,022
480,5	0,022
481,0	0,022
481,5	0,022
482,0	0,022
482,5	0,022
483,0	0,023
483,5	0,023
484,0	0,023
484,5	0,023
485,0	0,023
485,5	0,023
486,0	0,023
486,5	0,023
487,0	0,023
487,5	0,023
488,0	0,023
488,5	0,023
489,0	0,023
489,5	0,022
490,0	0,022
490,5	0,022
491,0	0,022
491,5	0,022
492,0	0,023
492,5	0,023
493,0	0,024
493,5	0,024
494,0	0,024
494,5	0,024
495,0	0,024
495,5	0,023
496,0	0,023
496,5	0,023
497,0	0,023
497,5	0,023
498,0	0,023
498,5	0,022
499,0	0,022
499,5	0,022
500,0	0,022
500,5	0,022
501,0	0,022
501,5	0,022
502,0	0,023
502,5	0,023
503,0	0,022
503,5	0,022
504,0	0,022
504,5	0,022
505,0	0,023
505,5	0,023
506,0	0,023
506,5	0,023
507,0	0,023
507,5	0,023
508,0	0,023
508,5	0,023
509,0	0,023
509,5	0,023
510,0	0,024
510,5	0,024
511,0	0,024
511,5	0,024
512,0	0,024
512,5	0,024
513,0	0,024
513,5	0,024
514,0	0,024
514,5	0,023
515,0	0,023
515,5	0,023
516,0	0,023
516,5	0,023
517,0	0,024
517,5	0,024
518,0	0,024
518,5	0,024
519,0	0,024
519,5	0,024
520,0	0,024
520,5	0,024
521,0	0,024
521,5	0,024
522,0	0,024
522,5	0,024
523,0	0,024
523,5	0,024
524,0	0,023
524,5	0,023
525,0	0,023
525,5	0,023
526,0	0,023
526,5	0,024
527,0	0,024
527,5	0,025
528,0	0,025
528,5	0,025
529,0	0,025
529,5	0,025
530,0	0,025
530,5	0,025
531,0	0,025
531,5	0,025
532,0	0,025
532,5	0,025
533,0	0,025
533,5	0,025
534,0	0,025
534,5	0,025
535,0	0,025
535,5	0,024
536,0	0,024
536,5	0,024
537,0	0,024
537,5	0,024
538,0	0,024
538,5	0,023
539,0	0,023
539,5	0,022
540,0	0,022
540,5	0,022
541,0	0,023
541,5	0,023
542,0	0,023
542,5	0,024
543,0	0,024
543,5	0,024
544,0	0,024
544,5	0,024
545,0	0,024
545,5	0,024
546,0	0,024
546,5	0,024
547,0	0,024
547,5	0,024
548,0	0,024
548,5	0,024
549,0	0,024
549,5	0,024
550,0	0,024
550,5	0,024
551,0	0,024
551,5	0,024
552,0	0,024
552,5	0,024
553,0	0,024
553,5	0,024
554,0	0,024
554,5	0,024
555,0	0,024
555,5	0,025
556,0	0,025
556,5	0,025
557,0	0,025
557,5	0,025
558,0	0,025
558,5	0,025
559,0	0,025
559,5	0,025
560,0	0,025
560,5	0,025
561,0	0,025
561,5	0,024
562,0	0,024
562,5	0,025
563,0	0,025
563,5	0,025
564,0	0,025
564,5	0,025
565,0	0,025
565,5	0,025
566,0	0,025
566,5	0,025
567,0	0,025
567,5	0,025
568,0	0,025
568,5	0,024
569,0	0,024
569,5	0,024
570,0	0,024
570,5	0,024
571,0	0,024
571,5	0,024
572,0	0,024
572,5	0,024
573,0	0,024
573,5	0,024
574,0	0,024
574,5	0,024
575,0	0,024
575,5	0,025
576,0	0,024
576,5	0,024
577,0	0,024
577,5	0,024
578,0	0,024
578,5	0,024
579,0	0,024
579,5	0,024
580,0	0,025
580,5	0,025
581,0	0,025
581,5	0,024
582,0	0,024
582,5	0,024
583,0	0,024
583,5	0,023
584,0	0,023
584,5	0,023
585,0	0,024
585,5	0,024
586,0	0,024
586,5	0,024
587,0	0,025
587,5	0,025
588,0	0,025
588,5	0,025
589,0	0,025
589,5	0,026
590,0	0,026
590,5	0,026
591,0	0,025
591,5	0,025
592,0	0,026
592,5	0,026
593,0	0,026
593,5	0,026
594,0	0,026
594,5	0,026
595,0	0,026
595,5	0,025
596,0	0,025
596,5	0,025
597,0	0,024
597,5	0,024
598,0	0,024
598,5	0,024
599,0	0,024
599,5	0,024
600,0	0,025
600,5	0,025
601,0	0,025
601,5	0,025
602,0	0,025
602,5	0,025
603,0	0,025
603,5	0,025
604,0	0,025
604,5	0,024
605,0	0,024
605,5	0,024
606,0	0,024
606,5	0,024
607,0	0,024
607,5	0,024
608,0	0,024
608,5	0,024
609,0	0,025
609,5	0,025
610,0	0,025
610,5	0,025
611,0	0,025
611,5	0,025
612,0	0,025
612,5	0,025
613,0	0,025
613,5	0,025
614,0	0,025
614,5	0,025
615,0	0,025
615,5	0,025
616,0	0,026
616,5	0,026
617,0	0,027
617,5	0,027
618,0	0,027
618,5	0,027
619,0	0,027
619,5	0,026
620,0	0,025
620,5	0,024
621,0	0,024
621,5	0,024
622,0	0,024
622,5	0,024
623,0	0,024
623,5	0,024
624,0	0,024
624,5	0,023
625,0	0,023
625,5	0,023
626,0	0,024
626,5	0,025
627,0	0,026
627,5	0,026
628,0	0,026
628,5	0,026
629,0	0,026
629,5	0,025
630,0	0,025
630,5	0,025
631,0	0,025
631,5	0,025
632,0	0,025
632,5	0,024
633,0	0,024
633,5	0,025
634,0	0,025
634,5	0,026
635,0	0,026
635,5	0,025
636,0	0,026
636,5	0,025
637,0	0,026
637,5	0,026
638,0	0,025
638,5	0,025
639,0	0,025
639,5	0,026
640,0	0,026
640,5	0,026
641,0	0,026
641,5	0,026
642,0	0,027
642,5	0,027
643,0	0,028
643,5	0,027
644,0	0,027
644,5	0,027
645,0	0,027
645,5	0,027
646,0	0,026
646,5	0,026
647,0	0,027
647,5	0,027
648,0	0,026
648,5	0,026
649,0	0,025
649,5	0,025
650,0	0,025
650,5	0,025
651,0	0,025
651,5	0,025
652,0	0,026
652,5	0,025
653,0	0,025
653,5	0,025
654,0	0,025
654,5	0,026
655,0	0,026
655,5	0,026
656,0	0,025
656,5	0,025
657,0	0,025
657,5	0,024
658,0	0,024
658,5	0,024
659,0	0,024
659,5	0,025
660,0	0,027
660,5	0,027
661,0	0,027
661,5	0,027
662,0	0,027
662,5	0,026
663,0	0,026
663,5	0,026
664,0	0,026
664,5	0,027
665,0	0,027
665,5	0,027
666,0	0,027
666,5	0,026
667,0	0,025
667,5	0,025
668,0	0,025
668,5	0,025
669,0	0,026
669,5	0,027
670,0	0,027
670,5	0,026
671,0	0,026
671,5	0,025
672,0	0,025
672,5	0,024
673,0	0,024
673,5	0,025
674,0	0,025
674,5	0,025
675,0	0,025
675,5	0,025
676,0	0,025
676,5	0,026
677,0	0,026
677,5	0,027
678,0	0,027
678,5	0,027
679,0	0,027
679,5	0,027
680,0	0,027
680,5	0,028
681,0	0,028
681,5	0,028
682,0	0,028
682,5	0,028
683,0	0,027
683,5	0,027
684,0	0,027
684,5	0,027
685,0	0,026
685,5	0,026
686,0	0,025
686,5	0,025
687,0	0,026
687,5	0,025
688,0	0,026
688,5	0,026
689,0	0,027
689,5	0,027
690,0	0,027
690,5	0,027
691,0	0,027
691,5	0,026
692,0	0,026
692,5	0,025
693,0	0,026
693,5	0,026
694,0	0,026
694,5	0,027
695,0	0,027
695,5	0,027
696,0	0,026
696,5	0,026
697,0	0,025
697,5	0,025
698,0	0,025
698,5	0,025
699,0	0,025
699,5	0,026
700,0	0,026
700,5	0,027
701,0	0,027
701,5	0,027
702,0	0,028
702,5	0,028
703,0	0,027
703,5	0,027
704,0	0,027
704,5	0,027
705,0	0,027
705,5	0,027
706,0	0,026
706,5	0,027
707,0	0,028
707,5	0,029
708,0	0,029
708,5	0,030
709,0	0,030
709,5	0,030
710,0	0,030
710,5	0,029
711,0	0,028
711,5	0,028
712,0	0,028
712,5	0,028
713,0	0,028
713,5	0,028
714,0	0,028
714,5	0,028
715,0	0,027
715,5	0,027
716,0	0,026
716,5	0,026
717,0	0,025
717,5	0,025
718,0	0,026
718,5	0,026
719,0	0,027
719,5	0,027
720,0	0,027
720,5	0,027
721,0	0,028
721,5	0,028
722,0	0,027
722,5	0,027
723,0	0,027
723,5	0,026
724,0	0,027
724,5	0,028
725,0	0,028
725,5	0,029
726,0	0,029
726,5	0,030
727,0	0,029
727,5	0,029
728,0	0,028
728,5	0,028
729,0	0,027
729,5	0,027
730,0	0,026
730,5	0,026
731,0	0,024
731,5	0,024
732,0	0,024
732,5	0,025
733,0	0,026
733,5	0,027
734,0	0,028
734,5	0,029
735,0	0,030
735,5	0,030
736,0	0,029
736,5	0,029
737,0	0,028
737,5	0,027
738,0	0,026
738,5	0,025
739,0	0,025
739,5	0,025
740,0	0,025
740,5	0,024
741,0	0,025
741,5	0,027
742,0	0,028
742,5	0,028
743,0	0,027
743,5	0,028
744,0	0,028
744,5	0,029
745,0	0,030
745,5	0,030
746,0	0,029
746,5	0,029
747,0	0,028
747,5	0,027
748,0	0,026
748,5	0,025
749,0	0,026
749,5	0,027
750,0	0,027
750,5	0,027
751,0	0,028
751,5	0,028
752,0	0,028
752,5	0,028
753,0	0,028
753,5	0,028
754,0	0,028
754,5	0,028
755,0	0,028
755,5	0,028
756,0	0,028
756,5	0,028
757,0	0,028
757,5	0,027
758,0	0,027
758,5	0,027
759,0	0,027
759,5	0,028
760,0	0,029
760,5	0,030
761,0	0,031
761,5	0,032
762,0	0,032
762,5	0,032
763,0	0,031
763,5	0,029
764,0	0,028
764,5	0,028
765,0	0,027
765,5	0,026
766,0	0,027
766,5	0,026
767,0	0,027
767,5	0,029
768,0	0,029
768,5	0,029
769,0	0,030
769,5	0,030
770,0	0,028
770,5	0,027
771,0	0,026
771,5	0,025
772,0	0,026
772,5	0,026
773,0	0,026
773,5	0,026
774,0	0,027
774,5	0,026
775,0	0,027
775,5	0,028
776,0	0,030
776,5	0,030
777,0	0,031
777,5	0,029
778,0	0,028
778,5	0,027
779,0	0,026
779,5	0,026
780,0	0,027
780,5	0,029
781,0	0,029
781,5	0,030
782,0	0,030
782,5	0,030
783,0	0,030
783,5	0,029
784,0	0,029
784,5	0,027
785,0	0,026
785,5	0,025
786,0	0,024
786,5	0,024
787,0	0,024
787,5	0,025
788,0	0,026
788,5	0,027
789,0	0,027
789,5	0,026
790,0	0,027
790,5	0,028
791,0	0,029
791,5	0,030
792,0	0,030
792,5	0,030
793,0	0,031
793,5	0,031
794,0	0,030
794,5	0,030
795,0	0,030
795,5	0,032
796,0	0,032
796,5	0,032
797,0	0,032
797,5	0,033
798,0	0,032
798,5	0,032
799,0	0,032
799,5	0,031
800,0	0,029
800,5	0,028
801,0	0,025
801,5	0,023
802,0	0,021
802,5	0,022
803,0	0,024
803,5	0,026
804,0	0,029
804,5	0,031
805,0	0,032
805,5	0,033
806,0	0,033
806,5	0,033
807,0	0,032
807,5	0,031
808,0	0,032
808,5	0,030
809,0	0,029
809,5	0,027
810,0	0,025
810,5	0,024
811,0	0,025
811,5	0,026
812,0	0,027
812,5	0,028
813,0	0,028
813,5	0,027
814,0	0,028
814,5	0,028
815,0	0,028
815,5	0,029
816,0	0,030
816,5	0,030
817,0	0,029
817,5	0,028
818,0	0,027
818,5	0,025
819,0	0,025
819,5	0,026
820,0	0,027
820,5	0,027
821,0	0,026
821,5	0,026
822,0	0,026
822,5	0,026
823,0	0,027
823,5	0,027
824,0	0,029
824,5	0,030
825,0	0,031
825,5	0,030
826,0	0,029
826,5	0,028
827,0	0,029
827,5	0,029
828,0	0,030
828,5	0,031
829,0	0,032
829,5	0,032
830,0	0,032
830,5	0,032
831,0	0,032
831,5	0,032
832,0	0,033
832,5	0,034
833,0	0,033
833,5	0,032
834,0	0,031
834,5	0,029
835,0	0,029
835,5	0,027
836,0	0,027
836,5	0,027
837,0	0,028
837,5	0,030
838,0	0,030
838,5	0,030
839,0	0,030
839,5	0,028
840,0	0,027
840,5	0,026
841,0	0,026
841,5	0,026
842,0	0,027
842,5	0,028
843,0	0,029
843,5	0,029
844,0	0,029
844,5	0,027
845,0	0,027
845,5	0,028
846,0	0,028
846,5	0,029
847,0	0,030
847,5	0,029
848,0	0,029
848,5	0,027
849,0	0,027
849,5	0,025
850,0	0,024


NR_13krpm_190619
19/06/2019 14:39
Longitud de onda (nm)	10mm Absorbance
//WLCalib: Shift 	0,23667	
//WLCalib: 261S 	-0,08000	
//WLCalib: 362S 	-0,58000	
//WLCalib: 484S 	-0,83000	
//WLCalib: 529S 	-0,65000	
//WLCalib: 823S 	-0,29000	
//QSpecEnd: 
190,0	0,202
190,5	0,227
191,0	0,244
191,5	0,259
192,0	0,273
192,5	0,286
193,0	0,293
193,5	0,299
194,0	0,304
194,5	0,310
195,0	0,312
195,5	0,312
196,0	0,311
196,5	0,308
197,0	0,306
197,5	0,300
198,0	0,294
198,5	0,286
199,0	0,279
199,5	0,270
200,0	0,260
200,5	0,249
201,0	0,238
201,5	0,228
202,0	0,220
202,5	0,211
203,0	0,205
203,5	0,200
204,0	0,195
204,5	0,188
205,0	0,183
205,5	0,177
206,0	0,172
206,5	0,166
207,0	0,161
207,5	0,158
208,0	0,154
208,5	0,151
209,0	0,147
209,5	0,142
210,0	0,138
210,5	0,134
211,0	0,130
211,5	0,126
212,0	0,123
212,5	0,121
213,0	0,119
213,5	0,117
214,0	0,114
214,5	0,112
215,0	0,109
215,5	0,106
216,0	0,103
216,5	0,099
217,0	0,096
217,5	0,093
218,0	0,090
218,5	0,088
219,0	0,085
219,5	0,083
220,0	0,082
220,5	0,080
221,0	0,078
221,5	0,075
222,0	0,074
222,5	0,071
223,0	0,069
223,5	0,067
224,0	0,066
224,5	0,064
225,0	0,062
225,5	0,060
226,0	0,059
226,5	0,057
227,0	0,056
227,5	0,055
228,0	0,054
228,5	0,054
229,0	0,054
229,5	0,053
230,0	0,052
230,5	0,052
231,0	0,051
231,5	0,050
232,0	0,049
232,5	0,049
233,0	0,048
233,5	0,048
234,0	0,048
234,5	0,048
235,0	0,047
235,5	0,047
236,0	0,047
236,5	0,047
237,0	0,047
237,5	0,047
238,0	0,047
238,5	0,047
239,0	0,046
239,5	0,046
240,0	0,046
240,5	0,046
241,0	0,046
241,5	0,046
242,0	0,047
242,5	0,047
243,0	0,047
243,5	0,047
244,0	0,047
244,5	0,047
245,0	0,047
245,5	0,046
246,0	0,047
246,5	0,047
247,0	0,047
247,5	0,048
248,0	0,048
248,5	0,048
249,0	0,048
249,5	0,048
250,0	0,047
250,5	0,047
251,0	0,046
251,5	0,046
252,0	0,047
252,5	0,047
253,0	0,047
253,5	0,047
254,0	0,047
254,5	0,047
255,0	0,047
255,5	0,047
256,0	0,047
256,5	0,048
257,0	0,048
257,5	0,048
258,0	0,048
258,5	0,047
259,0	0,048
259,5	0,048
260,0	0,048
260,5	0,049
261,0	0,049
261,5	0,049
262,0	0,049
262,5	0,048
263,0	0,048
263,5	0,048
264,0	0,048
264,5	0,048
265,0	0,048
265,5	0,048
266,0	0,048
266,5	0,048
267,0	0,048
267,5	0,048
268,0	0,048
268,5	0,048
269,0	0,047
269,5	0,047
270,0	0,047
270,5	0,047
271,0	0,047
271,5	0,047
272,0	0,047
272,5	0,047
273,0	0,046
273,5	0,046
274,0	0,046
274,5	0,045
275,0	0,045
275,5	0,045
276,0	0,044
276,5	0,044
277,0	0,044
277,5	0,043
278,0	0,043
278,5	0,043
279,0	0,043
279,5	0,042
280,0	0,042
280,5	0,042
281,0	0,042
281,5	0,042
282,0	0,042
282,5	0,042
283,0	0,042
283,5	0,042
284,0	0,041
284,5	0,040
285,0	0,040
285,5	0,040
286,0	0,040
286,5	0,040
287,0	0,040
287,5	0,040
288,0	0,040
288,5	0,040
289,0	0,039
289,5	0,039
290,0	0,039
290,5	0,039
291,0	0,039
291,5	0,039
292,0	0,039
292,5	0,039
293,0	0,039
293,5	0,039
294,0	0,039
294,5	0,039
295,0	0,039
295,5	0,039
296,0	0,039
296,5	0,039
297,0	0,038
297,5	0,038
298,0	0,038
298,5	0,038
299,0	0,038
299,5	0,038
300,0	0,038
300,5	0,038
301,0	0,038
301,5	0,038
302,0	0,038
302,5	0,038
303,0	0,037
303,5	0,037
304,0	0,037
304,5	0,037
305,0	0,036
305,5	0,036
306,0	0,036
306,5	0,036
307,0	0,036
307,5	0,036
308,0	0,036
308,5	0,036
309,0	0,036
309,5	0,036
310,0	0,036
310,5	0,036
311,0	0,036
311,5	0,035
312,0	0,035
312,5	0,035
313,0	0,035
313,5	0,035
314,0	0,035
314,5	0,035
315,0	0,035
315,5	0,035
316,0	0,035
316,5	0,034
317,0	0,034
317,5	0,034
318,0	0,034
318,5	0,035
319,0	0,035
319,5	0,035
320,0	0,035
320,5	0,034
321,0	0,034
321,5	0,034
322,0	0,033
322,5	0,034
323,0	0,034
323,5	0,034
324,0	0,034
324,5	0,034
325,0	0,034
325,5	0,034
326,0	0,034
326,5	0,034
327,0	0,034
327,5	0,034
328,0	0,034
328,5	0,033
329,0	0,033
329,5	0,033
330,0	0,034
330,5	0,034
331,0	0,034
331,5	0,034
332,0	0,034
332,5	0,034
333,0	0,034
333,5	0,034
334,0	0,034
334,5	0,033
335,0	0,033
335,5	0,033
336,0	0,034
336,5	0,034
337,0	0,034
337,5	0,033
338,0	0,033
338,5	0,033
339,0	0,033
339,5	0,033
340,0	0,033
340,5	0,033
341,0	0,033
341,5	0,033
342,0	0,033
342,5	0,033
343,0	0,033
343,5	0,033
344,0	0,033
344,5	0,032
345,0	0,033
345,5	0,032
346,0	0,032
346,5	0,033
347,0	0,033
347,5	0,034
348,0	0,034
348,5	0,034
349,0	0,034
349,5	0,034
350,0	0,033
350,5	0,033
351,0	0,033
351,5	0,032
352,0	0,032
352,5	0,032
353,0	0,032
353,5	0,031
354,0	0,032
354,5	0,032
355,0	0,032
355,5	0,032
356,0	0,032
356,5	0,032
357,0	0,032
357,5	0,032
358,0	0,033
358,5	0,033
359,0	0,033
359,5	0,032
360,0	0,032
360,5	0,032
361,0	0,032
361,5	0,032
362,0	0,032
362,5	0,033
363,0	0,033
363,5	0,033
364,0	0,033
364,5	0,033
365,0	0,032
365,5	0,032
366,0	0,032
366,5	0,032
367,0	0,031
367,5	0,031
368,0	0,032
368,5	0,032
369,0	0,032
369,5	0,032
370,0	0,032
370,5	0,032
371,0	0,032
371,5	0,032
372,0	0,032
372,5	0,032
373,0	0,032
373,5	0,032
374,0	0,032
374,5	0,032
375,0	0,032
375,5	0,032
376,0	0,032
376,5	0,032
377,0	0,032
377,5	0,032
378,0	0,032
378,5	0,032
379,0	0,031
379,5	0,031
380,0	0,031
380,5	0,031
381,0	0,031
381,5	0,031
382,0	0,031
382,5	0,031
383,0	0,031
383,5	0,032
384,0	0,032
384,5	0,032
385,0	0,033
385,5	0,033
386,0	0,032
386,5	0,032
387,0	0,032
387,5	0,032
388,0	0,032
388,5	0,031
389,0	0,031
389,5	0,031
390,0	0,031
390,5	0,031
391,0	0,031
391,5	0,031
392,0	0,031
392,5	0,031
393,0	0,031
393,5	0,031
394,0	0,031
394,5	0,031
395,0	0,032
395,5	0,032
396,0	0,032
396,5	0,032
397,0	0,032
397,5	0,031
398,0	0,031
398,5	0,031
399,0	0,031
399,5	0,031
400,0	0,031
400,5	0,031
401,0	0,031
401,5	0,031
402,0	0,031
402,5	0,030
403,0	0,030
403,5	0,031
404,0	0,031
404,5	0,031
405,0	0,031
405,5	0,031
406,0	0,031
406,5	0,031
407,0	0,031
407,5	0,031
408,0	0,031
408,5	0,031
409,0	0,031
409,5	0,031
410,0	0,031
410,5	0,031
411,0	0,031
411,5	0,031
412,0	0,031
412,5	0,031
413,0	0,031
413,5	0,031
414,0	0,031
414,5	0,031
415,0	0,031
415,5	0,031
416,0	0,031
416,5	0,031
417,0	0,031
417,5	0,031
418,0	0,030
418,5	0,030
419,0	0,030
419,5	0,030
420,0	0,031
420,5	0,031
421,0	0,031
421,5	0,031
422,0	0,031
422,5	0,031
423,0	0,031
423,5	0,030
424,0	0,030
424,5	0,030
425,0	0,031
425,5	0,031
426,0	0,031
426,5	0,031
427,0	0,031
427,5	0,031
428,0	0,031
428,5	0,031
429,0	0,030
429,5	0,031
430,0	0,030
430,5	0,030
431,0	0,030
431,5	0,030
432,0	0,030
432,5	0,030
433,0	0,030
433,5	0,030
434,0	0,030
434,5	0,030
435,0	0,030
435,5	0,030
436,0	0,030
436,5	0,030
437,0	0,030
437,5	0,030
438,0	0,030
438,5	0,031
439,0	0,031
439,5	0,031
440,0	0,031
440,5	0,031
441,0	0,031
441,5	0,031
442,0	0,031
442,5	0,031
443,0	0,030
443,5	0,030
444,0	0,030
444,5	0,030
445,0	0,030
445,5	0,030
446,0	0,030
446,5	0,030
447,0	0,030
447,5	0,030
448,0	0,030
448,5	0,030
449,0	0,031
449,5	0,031
450,0	0,031
450,5	0,030
451,0	0,030
451,5	0,030
452,0	0,030
452,5	0,030
453,0	0,030
453,5	0,030
454,0	0,030
454,5	0,030
455,0	0,030
455,5	0,030
456,0	0,030
456,5	0,030
457,0	0,030
457,5	0,030
458,0	0,030
458,5	0,030
459,0	0,030
459,5	0,030
460,0	0,030
460,5	0,030
461,0	0,030
461,5	0,030
462,0	0,029
462,5	0,029
463,0	0,029
463,5	0,029
464,0	0,029
464,5	0,029
465,0	0,029
465,5	0,030
466,0	0,030
466,5	0,031
467,0	0,031
467,5	0,030
468,0	0,030
468,5	0,030
469,0	0,030
469,5	0,029
470,0	0,029
470,5	0,029
471,0	0,029
471,5	0,029
472,0	0,030
472,5	0,030
473,0	0,030
473,5	0,030
474,0	0,030
474,5	0,030
475,0	0,030
475,5	0,030
476,0	0,030
476,5	0,030
477,0	0,030
477,5	0,030
478,0	0,029
478,5	0,029
479,0	0,029
479,5	0,029
480,0	0,029
480,5	0,029
481,0	0,029
481,5	0,029
482,0	0,030
482,5	0,030
483,0	0,030
483,5	0,030
484,0	0,030
484,5	0,030
485,0	0,030
485,5	0,030
486,0	0,030
486,5	0,030
487,0	0,030
487,5	0,030
488,0	0,030
488,5	0,030
489,0	0,030
489,5	0,030
490,0	0,029
490,5	0,030
491,0	0,030
491,5	0,030
492,0	0,030
492,5	0,030
493,0	0,031
493,5	0,030
494,0	0,030
494,5	0,030
495,0	0,030
495,5	0,030
496,0	0,030
496,5	0,030
497,0	0,029
497,5	0,029
498,0	0,029
498,5	0,029
499,0	0,029
499,5	0,030
500,0	0,030
500,5	0,030
501,0	0,030
501,5	0,030
502,0	0,030
502,5	0,029
503,0	0,029
503,5	0,029
504,0	0,029
504,5	0,029
505,0	0,030
505,5	0,030
506,0	0,030
506,5	0,031
507,0	0,031
507,5	0,031
508,0	0,031
508,5	0,032
509,0	0,032
509,5	0,031
510,0	0,031
510,5	0,031
511,0	0,031
511,5	0,031
512,0	0,030
512,5	0,030
513,0	0,031
513,5	0,031
514,0	0,032
514,5	0,031
515,0	0,031
515,5	0,031
516,0	0,031
516,5	0,031
517,0	0,031
517,5	0,031
518,0	0,031
518,5	0,032
519,0	0,032
519,5	0,031
520,0	0,031
520,5	0,031
521,0	0,032
521,5	0,032
522,0	0,032
522,5	0,032
523,0	0,032
523,5	0,031
524,0	0,031
524,5	0,031
525,0	0,031
525,5	0,031
526,0	0,032
526,5	0,032
527,0	0,032
527,5	0,032
528,0	0,032
528,5	0,032
529,0	0,032
529,5	0,032
530,0	0,032
530,5	0,032
531,0	0,032
531,5	0,032
532,0	0,032
532,5	0,032
533,0	0,032
533,5	0,032
534,0	0,032
534,5	0,032
535,0	0,032
535,5	0,032
536,0	0,032
536,5	0,032
537,0	0,031
537,5	0,031
538,0	0,031
538,5	0,031
539,0	0,031
539,5	0,031
540,0	0,031
540,5	0,031
541,0	0,031
541,5	0,031
542,0	0,030
542,5	0,030
543,0	0,030
543,5	0,030
544,0	0,031
544,5	0,031
545,0	0,031
545,5	0,031
546,0	0,031
546,5	0,031
547,0	0,031
547,5	0,031
548,0	0,031
548,5	0,031
549,0	0,031
549,5	0,031
550,0	0,031
550,5	0,031
551,0	0,031
551,5	0,031
552,0	0,031
552,5	0,032
553,0	0,032
553,5	0,032
554,0	0,032
554,5	0,032
555,0	0,032
555,5	0,032
556,0	0,032
556,5	0,032
557,0	0,032
557,5	0,032
558,0	0,032
558,5	0,032
559,0	0,031
559,5	0,031
560,0	0,031
560,5	0,031
561,0	0,031
561,5	0,032
562,0	0,032
562,5	0,032
563,0	0,032
563,5	0,032
564,0	0,032
564,5	0,032
565,0	0,032
565,5	0,032
566,0	0,032
566,5	0,032
567,0	0,031
567,5	0,032
568,0	0,032
568,5	0,032
569,0	0,032
569,5	0,032
570,0	0,031
570,5	0,031
571,0	0,031
571,5	0,031
572,0	0,031
572,5	0,032
573,0	0,032
573,5	0,032
574,0	0,031
574,5	0,032
575,0	0,032
575,5	0,032
576,0	0,031
576,5	0,031
577,0	0,031
577,5	0,032
578,0	0,032
578,5	0,032
579,0	0,032
579,5	0,033
580,0	0,033
580,5	0,033
581,0	0,033
581,5	0,032
582,0	0,032
582,5	0,031
583,0	0,031
583,5	0,031
584,0	0,030
584,5	0,030
585,0	0,031
585,5	0,032
586,0	0,032
586,5	0,032
587,0	0,033
587,5	0,033
588,0	0,033
588,5	0,034
589,0	0,034
589,5	0,033
590,0	0,033
590,5	0,032
591,0	0,032
591,5	0,032
592,0	0,032
592,5	0,032
593,0	0,032
593,5	0,033
594,0	0,034
594,5	0,034
595,0	0,034
595,5	0,034
596,0	0,033
596,5	0,033
597,0	0,033
597,5	0,032
598,0	0,032
598,5	0,032
599,0	0,032
599,5	0,032
600,0	0,033
600,5	0,033
601,0	0,033
601,5	0,033
602,0	0,033
602,5	0,032
603,0	0,033
603,5	0,033
604,0	0,033
604,5	0,033
605,0	0,034
605,5	0,034
606,0	0,033
606,5	0,033
607,0	0,033
607,5	0,033
608,0	0,034
608,5	0,034
609,0	0,035
609,5	0,034
610,0	0,034
610,5	0,034
611,0	0,033
611,5	0,033
612,0	0,033
612,5	0,033
613,0	0,034
613,5	0,034
614,0	0,034
614,5	0,033
615,0	0,033
615,5	0,032
616,0	0,031
616,5	0,031
617,0	0,031
617,5	0,032
618,0	0,032
618,5	0,033
619,0	0,033
619,5	0,033
620,0	0,033
620,5	0,033
621,0	0,032
621,5	0,032
622,0	0,032
622,5	0,032
623,0	0,032
623,5	0,032
624,0	0,032
624,5	0,032
625,0	0,031
625,5	0,032
626,0	0,032
626,5	0,033
627,0	0,033
627,5	0,034
628,0	0,034
628,5	0,034
629,0	0,034
629,5	0,033
630,0	0,033
630,5	0,033
631,0	0,033
631,5	0,033
632,0	0,032
632,5	0,032
633,0	0,032
633,5	0,032
634,0	0,031
634,5	0,031
635,0	0,032
635,5	0,032
636,0	0,032
636,5	0,032
637,0	0,032
637,5	0,033
638,0	0,033
638,5	0,033
639,0	0,033
639,5	0,034
640,0	0,035
640,5	0,035
641,0	0,035
641,5	0,035
642,0	0,035
642,5	0,035
643,0	0,035
643,5	0,034
644,0	0,034
644,5	0,033
645,0	0,033
645,5	0,033
646,0	0,034
646,5	0,034
647,0	0,034
647,5	0,035
648,0	0,035
648,5	0,034
649,0	0,034
649,5	0,033
650,0	0,033
650,5	0,033
651,0	0,033
651,5	0,034
652,0	0,034
652,5	0,033
653,0	0,033
653,5	0,033
654,0	0,033
654,5	0,034
655,0	0,034
655,5	0,034
656,0	0,034
656,5	0,034
657,0	0,033
657,5	0,032
658,0	0,032
658,5	0,032
659,0	0,032
659,5	0,032
660,0	0,034
660,5	0,034
661,0	0,035
661,5	0,035
662,0	0,035
662,5	0,035
663,0	0,035
663,5	0,035
664,0	0,035
664,5	0,035
665,0	0,035
665,5	0,036
666,0	0,035
666,5	0,035
667,0	0,034
667,5	0,034
668,0	0,034
668,5	0,034
669,0	0,034
669,5	0,034
670,0	0,034
670,5	0,033
671,0	0,033
671,5	0,032
672,0	0,032
672,5	0,031
673,0	0,031
673,5	0,031
674,0	0,032
674,5	0,032
675,0	0,033
675,5	0,033
676,0	0,034
676,5	0,035
677,0	0,035
677,5	0,035
678,0	0,034
678,5	0,034
679,0	0,034
679,5	0,034
680,0	0,034
680,5	0,035
681,0	0,035
681,5	0,036
682,0	0,036
682,5	0,036
683,0	0,036
683,5	0,036
684,0	0,037
684,5	0,036
685,0	0,035
685,5	0,034
686,0	0,033
686,5	0,032
687,0	0,032
687,5	0,032
688,0	0,033
688,5	0,034
689,0	0,035
689,5	0,036
690,0	0,036
690,5	0,035
691,0	0,034
691,5	0,033
692,0	0,033
692,5	0,032
693,0	0,033
693,5	0,034
694,0	0,034
694,5	0,035
695,0	0,035
695,5	0,035
696,0	0,034
696,5	0,033
697,0	0,033
697,5	0,033
698,0	0,033
698,5	0,034
699,0	0,034
699,5	0,034
700,0	0,034
700,5	0,034
701,0	0,033
701,5	0,033
702,0	0,034
702,5	0,034
703,0	0,034
703,5	0,035
704,0	0,035
704,5	0,035
705,0	0,035
705,5	0,035
706,0	0,035
706,5	0,036
707,0	0,036
707,5	0,037
708,0	0,037
708,5	0,037
709,0	0,036
709,5	0,037
710,0	0,036
710,5	0,036
711,0	0,036
711,5	0,036
712,0	0,036
712,5	0,036
713,0	0,035
713,5	0,034
714,0	0,034
714,5	0,035
715,0	0,035
715,5	0,036
716,0	0,036
716,5	0,036
717,0	0,035
717,5	0,034
718,0	0,034
718,5	0,035
719,0	0,035
719,5	0,036
720,0	0,036
720,5	0,036
721,0	0,036
721,5	0,037
722,0	0,036
722,5	0,036
723,0	0,036
723,5	0,036
724,0	0,036
724,5	0,036
725,0	0,036
725,5	0,037
726,0	0,038
726,5	0,038
727,0	0,038
727,5	0,038
728,0	0,037
728,5	0,037
729,0	0,037
729,5	0,036
730,0	0,036
730,5	0,035
731,0	0,034
731,5	0,033
732,0	0,032
732,5	0,033
733,0	0,033
733,5	0,035
734,0	0,037
734,5	0,039
735,0	0,039
735,5	0,039
736,0	0,038
736,5	0,037
737,0	0,036
737,5	0,034
738,0	0,033
738,5	0,032
739,0	0,032
739,5	0,032
740,0	0,031
740,5	0,032
741,0	0,033
741,5	0,035
742,0	0,035
742,5	0,036
743,0	0,036
743,5	0,036
744,0	0,035
744,5	0,035
745,0	0,036
745,5	0,036
746,0	0,037
746,5	0,037
747,0	0,036
747,5	0,036
748,0	0,036
748,5	0,035
749,0	0,035
749,5	0,035
750,0	0,036
750,5	0,037
751,0	0,038
751,5	0,038
752,0	0,038
752,5	0,038
753,0	0,037
753,5	0,037
754,0	0,036
754,5	0,035
755,0	0,035
755,5	0,036
756,0	0,036
756,5	0,036
757,0	0,036
757,5	0,036
758,0	0,037
758,5	0,037
759,0	0,037
759,5	0,038
760,0	0,039
760,5	0,040
761,0	0,041
761,5	0,041
762,0	0,041
762,5	0,041
763,0	0,040
763,5	0,038
764,0	0,037
764,5	0,037
765,0	0,036
765,5	0,036
766,0	0,037
766,5	0,036
767,0	0,037
767,5	0,037
768,0	0,037
768,5	0,037
769,0	0,037
769,5	0,037
770,0	0,035
770,5	0,035
771,0	0,035
771,5	0,034
772,0	0,034
772,5	0,034
773,0	0,034
773,5	0,034
774,0	0,035
774,5	0,037
775,0	0,038
775,5	0,040
776,0	0,041
776,5	0,042
777,0	0,043
777,5	0,043
778,0	0,041
778,5	0,040
779,0	0,039
779,5	0,037
780,0	0,036
780,5	0,036
781,0	0,036
781,5	0,036
782,0	0,037
782,5	0,037
783,0	0,038
783,5	0,039
784,0	0,039
784,5	0,038
785,0	0,037
785,5	0,036
786,0	0,035
786,5	0,034
787,0	0,034
787,5	0,035
788,0	0,037
788,5	0,038
789,0	0,039
789,5	0,038
790,0	0,039
790,5	0,039
791,0	0,038
791,5	0,037
792,0	0,037
792,5	0,036
793,0	0,036
793,5	0,037
794,0	0,038
794,5	0,039
795,0	0,040
795,5	0,040
796,0	0,040
796,5	0,039
797,0	0,039
797,5	0,038
798,0	0,039
798,5	0,038
799,0	0,037
799,5	0,036
800,0	0,034
800,5	0,032
801,0	0,029
801,5	0,028
802,0	0,028
802,5	0,029
803,0	0,031
803,5	0,033
804,0	0,034
804,5	0,036
805,0	0,039
805,5	0,040
806,0	0,040
806,5	0,042
807,0	0,043
807,5	0,043
808,0	0,044
808,5	0,042
809,0	0,040
809,5	0,039
810,0	0,038
810,5	0,036
811,0	0,036
811,5	0,037
812,0	0,038
812,5	0,038
813,0	0,038
813,5	0,037
814,0	0,036
814,5	0,037
815,0	0,037
815,5	0,038
816,0	0,038
816,5	0,039
817,0	0,037
817,5	0,036
818,0	0,035
818,5	0,033
819,0	0,033
819,5	0,034
820,0	0,035
820,5	0,036
821,0	0,036
821,5	0,036
822,0	0,036
822,5	0,037
823,0	0,037
823,5	0,037
824,0	0,038
824,5	0,039
825,0	0,040
825,5	0,040
826,0	0,040
826,5	0,040
827,0	0,040
827,5	0,040
828,0	0,040
828,5	0,039
829,0	0,039
829,5	0,040
830,0	0,041
830,5	0,041
831,0	0,042
831,5	0,044
832,0	0,045
832,5	0,044
833,0	0,043
833,5	0,040
834,0	0,038
834,5	0,037
835,0	0,037
835,5	0,035
836,0	0,036
836,5	0,037
837,0	0,038
837,5	0,038
838,0	0,037
838,5	0,037
839,0	0,036
839,5	0,036
840,0	0,035
840,5	0,035
841,0	0,036
841,5	0,036
842,0	0,038
842,5	0,039
843,0	0,039
843,5	0,039
844,0	0,039
844,5	0,036
845,0	0,035
845,5	0,036
846,0	0,035
846,5	0,035
847,0	0,036
847,5	0,036
848,0	0,036
848,5	0,036
849,0	0,038
849,5	0,037
850,0	0,039


AuNR_12krpm_190619
19/06/2019 14:45
Longitud de onda (nm)	10mm Absorbance
//WLCalib: Shift 	0,23667	
//WLCalib: 261S 	-0,08000	
//WLCalib: 362S 	-0,58000	
//WLCalib: 484S 	-0,83000	
//WLCalib: 529S 	-0,65000	
//WLCalib: 823S 	-0,29000	
//QSpecEnd: 
190,0	0,628
190,5	0,646
191,0	0,670
191,5	0,688
192,0	0,713
192,5	0,732
193,0	0,743
193,5	0,758
194,0	0,770
194,5	0,776
195,0	0,776
195,5	0,776
196,0	0,773
196,5	0,773
197,0	0,772
197,5	0,767
198,0	0,756
198,5	0,746
199,0	0,735
199,5	0,723
200,0	0,712
200,5	0,701
201,0	0,687
201,5	0,679
202,0	0,670
202,5	0,659
203,0	0,648
203,5	0,637
204,0	0,630
204,5	0,621
205,0	0,612
205,5	0,601
206,0	0,591
206,5	0,584
207,0	0,576
207,5	0,570
208,0	0,568
208,5	0,566
209,0	0,563
209,5	0,558
210,0	0,553
210,5	0,548
211,0	0,542
211,5	0,535
212,0	0,532
212,5	0,529
213,0	0,528
213,5	0,526
214,0	0,525
214,5	0,522
215,0	0,521
215,5	0,519
216,0	0,516
216,5	0,513
217,0	0,512
217,5	0,510
218,0	0,508
218,5	0,506
219,0	0,505
219,5	0,503
220,0	0,503
220,5	0,501
221,0	0,499
221,5	0,498
222,0	0,497
222,5	0,496
223,0	0,494
223,5	0,492
224,0	0,490
224,5	0,489
225,0	0,487
225,5	0,485
226,0	0,482
226,5	0,481
227,0	0,480
227,5	0,479
228,0	0,478
228,5	0,478
229,0	0,479
229,5	0,480
230,0	0,480
230,5	0,480
231,0	0,479
231,5	0,479
232,0	0,478
232,5	0,477
233,0	0,477
233,5	0,476
234,0	0,476
234,5	0,476
235,0	0,476
235,5	0,475
236,0	0,475
236,5	0,475
237,0	0,474
237,5	0,474
238,0	0,474
238,5	0,473
239,0	0,473
239,5	0,472
240,0	0,472
240,5	0,472
241,0	0,472
241,5	0,472
242,0	0,473
242,5	0,474
243,0	0,475
243,5	0,475
244,0	0,475
244,5	0,473
245,0	0,472
245,5	0,472
246,0	0,472
246,5	0,473
247,0	0,474
247,5	0,475
248,0	0,476
248,5	0,476
249,0	0,476
249,5	0,474
250,0	0,474
250,5	0,473
251,0	0,473
251,5	0,473
252,0	0,473
252,5	0,473
253,0	0,474
253,5	0,474
254,0	0,474
254,5	0,473
255,0	0,472
255,5	0,471
256,0	0,470
256,5	0,470
257,0	0,469
257,5	0,469
258,0	0,468
258,5	0,468
259,0	0,468
259,5	0,469
260,0	0,469
260,5	0,469
261,0	0,470
261,5	0,470
262,0	0,470
262,5	0,469
263,0	0,467
263,5	0,467
264,0	0,466
264,5	0,466
265,0	0,464
265,5	0,464
266,0	0,462
266,5	0,461
267,0	0,460
267,5	0,459
268,0	0,458
268,5	0,458
269,0	0,457
269,5	0,456
270,0	0,455
270,5	0,454
271,0	0,453
271,5	0,451
272,0	0,450
272,5	0,449
273,0	0,448
273,5	0,447
274,0	0,446
274,5	0,445
275,0	0,444
275,5	0,442
276,0	0,441
276,5	0,439
277,0	0,437
277,5	0,436
278,0	0,434
278,5	0,433
279,0	0,432
279,5	0,430
280,0	0,429
280,5	0,428
281,0	0,426
281,5	0,425
282,0	0,424
282,5	0,422
283,0	0,421
283,5	0,419
284,0	0,418
284,5	0,416
285,0	0,414
285,5	0,413
286,0	0,412
286,5	0,411
287,0	0,410
287,5	0,409
288,0	0,408
288,5	0,407
289,0	0,405
289,5	0,404
290,0	0,403
290,5	0,402
291,0	0,401
291,5	0,400
292,0	0,399
292,5	0,399
293,0	0,397
293,5	0,396
294,0	0,395
294,5	0,394
295,0	0,393
295,5	0,393
296,0	0,392
296,5	0,391
297,0	0,391
297,5	0,390
298,0	0,388
298,5	0,387
299,0	0,386
299,5	0,385
300,0	0,384
300,5	0,384
301,0	0,382
301,5	0,382
302,0	0,381
302,5	0,380
303,0	0,379
303,5	0,378
304,0	0,376
304,5	0,376
305,0	0,374
305,5	0,373
306,0	0,372
306,5	0,371
307,0	0,370
307,5	0,369
308,0	0,368
308,5	0,367
309,0	0,367
309,5	0,366
310,0	0,365
310,5	0,364
311,0	0,363
311,5	0,362
312,0	0,361
312,5	0,360
313,0	0,359
313,5	0,358
314,0	0,357
314,5	0,356
315,0	0,355
315,5	0,354
316,0	0,354
316,5	0,353
317,0	0,352
317,5	0,352
318,0	0,351
318,5	0,349
319,0	0,348
319,5	0,347
320,0	0,346
320,5	0,346
321,0	0,345
321,5	0,344
322,0	0,343
322,5	0,343
323,0	0,342
323,5	0,340
324,0	0,339
324,5	0,338
325,0	0,337
325,5	0,337
326,0	0,336
326,5	0,335
327,0	0,334
327,5	0,333
328,0	0,332
328,5	0,332
329,0	0,330
329,5	0,330
330,0	0,329
330,5	0,328
331,0	0,328
331,5	0,327
332,0	0,326
332,5	0,326
333,0	0,325
333,5	0,324
334,0	0,323
334,5	0,322
335,0	0,321
335,5	0,321
336,0	0,320
336,5	0,319
337,0	0,318
337,5	0,317
338,0	0,317
338,5	0,316
339,0	0,316
339,5	0,315
340,0	0,314
340,5	0,314
341,0	0,313
341,5	0,312
342,0	0,312
342,5	0,312
343,0	0,311
343,5	0,311
344,0	0,310
344,5	0,309
345,0	0,309
345,5	0,309
346,0	0,308
346,5	0,308
347,0	0,308
347,5	0,308
348,0	0,308
348,5	0,308
349,0	0,307
349,5	0,307
350,0	0,306
350,5	0,306
351,0	0,306
351,5	0,306
352,0	0,306
352,5	0,306
353,0	0,305
353,5	0,305
354,0	0,305
354,5	0,304
355,0	0,304
355,5	0,304
356,0	0,303
356,5	0,304
357,0	0,303
357,5	0,303
358,0	0,304
358,5	0,303
359,0	0,304
359,5	0,304
360,0	0,304
360,5	0,303
361,0	0,303
361,5	0,303
362,0	0,302
362,5	0,302
363,0	0,302
363,5	0,302
364,0	0,302
364,5	0,302
365,0	0,303
365,5	0,302
366,0	0,302
366,5	0,302
367,0	0,301
367,5	0,301
368,0	0,301
368,5	0,301
369,0	0,300
369,5	0,300
370,0	0,300
370,5	0,300
371,0	0,300
371,5	0,300
372,0	0,300
372,5	0,300
373,0	0,299
373,5	0,299
374,0	0,299
374,5	0,298
375,0	0,298
375,5	0,298
376,0	0,297
376,5	0,297
377,0	0,296
377,5	0,296
378,0	0,295
378,5	0,295
379,0	0,295
379,5	0,294
380,0	0,294
380,5	0,294
381,0	0,294
381,5	0,293
382,0	0,293
382,5	0,293
383,0	0,293
383,5	0,293
384,0	0,293
384,5	0,293
385,0	0,293
385,5	0,293
386,0	0,292
386,5	0,292
387,0	0,292
387,5	0,291
388,0	0,291
388,5	0,291
389,0	0,290
389,5	0,289
390,0	0,289
390,5	0,289
391,0	0,288
391,5	0,288
392,0	0,287
392,5	0,288
393,0	0,288
393,5	0,287
394,0	0,287
394,5	0,287
395,0	0,287
395,5	0,287
396,0	0,286
396,5	0,286
397,0	0,286
397,5	0,286
398,0	0,286
398,5	0,286
399,0	0,286
399,5	0,285
400,0	0,285
400,5	0,284
401,0	0,284
401,5	0,283
402,0	0,283
402,5	0,282
403,0	0,282
403,5	0,281
404,0	0,281
404,5	0,280
405,0	0,280
405,5	0,280
406,0	0,280
406,5	0,280
407,0	0,280
407,5	0,279
408,0	0,279
408,5	0,279
409,0	0,279
409,5	0,278
410,0	0,278
410,5	0,277
411,0	0,276
411,5	0,276
412,0	0,275
412,5	0,275
413,0	0,275
413,5	0,275
414,0	0,276
414,5	0,275
415,0	0,275
415,5	0,275
416,0	0,274
416,5	0,274
417,0	0,274
417,5	0,274
418,0	0,273
418,5	0,273
419,0	0,272
419,5	0,272
420,0	0,271
420,5	0,271
421,0	0,271
421,5	0,271
422,0	0,271
422,5	0,270
423,0	0,270
423,5	0,270
424,0	0,269
424,5	0,269
425,0	0,270
425,5	0,269
426,0	0,269
426,5	0,269
427,0	0,269
427,5	0,268
428,0	0,268
428,5	0,267
429,0	0,267
429,5	0,267
430,0	0,267
430,5	0,267
431,0	0,267
431,5	0,267
432,0	0,266
432,5	0,265
433,0	0,265
433,5	0,265
434,0	0,265
434,5	0,264
435,0	0,264
435,5	0,264
436,0	0,264
436,5	0,263
437,0	0,263
437,5	0,264
438,0	0,263
438,5	0,263
439,0	0,263
439,5	0,263
440,0	0,262
440,5	0,262
441,0	0,261
441,5	0,261
442,0	0,260
442,5	0,260
443,0	0,260
443,5	0,260
444,0	0,260
444,5	0,259
445,0	0,260
445,5	0,260
446,0	0,260
446,5	0,259
447,0	0,259
447,5	0,259
448,0	0,258
448,5	0,258
449,0	0,258
449,5	0,258
450,0	0,258
450,5	0,258
451,0	0,258
451,5	0,258
452,0	0,257
452,5	0,257
453,0	0,257
453,5	0,257
454,0	0,257
454,5	0,257
455,0	0,257
455,5	0,258
456,0	0,257
456,5	0,257
457,0	0,257
457,5	0,257
458,0	0,257
458,5	0,256
459,0	0,256
459,5	0,255
460,0	0,255
460,5	0,255
461,0	0,255
461,5	0,255
462,0	0,256
462,5	0,256
463,0	0,255
463,5	0,255
464,0	0,255
464,5	0,255
465,0	0,256
465,5	0,256
466,0	0,257
466,5	0,257
467,0	0,257
467,5	0,256
468,0	0,256
468,5	0,256
469,0	0,256
469,5	0,256
470,0	0,256
470,5	0,256
471,0	0,256
471,5	0,256
472,0	0,257
472,5	0,257
473,0	0,258
473,5	0,258
474,0	0,258
474,5	0,258
475,0	0,258
475,5	0,259
476,0	0,259
476,5	0,260
477,0	0,261
477,5	0,261
478,0	0,261
478,5	0,261
479,0	0,261
479,5	0,261
480,0	0,261
480,5	0,262
481,0	0,263
481,5	0,264
482,0	0,264
482,5	0,265
483,0	0,266
483,5	0,267
484,0	0,268
484,5	0,268
485,0	0,269
485,5	0,270
486,0	0,271
486,5	0,272
487,0	0,272
487,5	0,273
488,0	0,274
488,5	0,275
489,0	0,276
489,5	0,278
490,0	0,279
490,5	0,281
491,0	0,282
491,5	0,284
492,0	0,286
492,5	0,288
493,0	0,289
493,5	0,290
494,0	0,291
494,5	0,292
495,0	0,293
495,5	0,295
496,0	0,296
496,5	0,299
497,0	0,301
497,5	0,303
498,0	0,305
498,5	0,307
499,0	0,308
499,5	0,309
500,0	0,311
500,5	0,313
501,0	0,315
501,5	0,317
502,0	0,320
502,5	0,322
503,0	0,324
503,5	0,325
504,0	0,327
504,5	0,329
505,0	0,330
505,5	0,332
506,0	0,334
506,5	0,335
507,0	0,337
507,5	0,338
508,0	0,339
508,5	0,340
509,0	0,341
509,5	0,342
510,0	0,344
510,5	0,345
511,0	0,347
511,5	0,347
512,0	0,348
512,5	0,348
513,0	0,348
513,5	0,348
514,0	0,348
514,5	0,348
515,0	0,348
515,5	0,348
516,0	0,348
516,5	0,348
517,0	0,348
517,5	0,348
518,0	0,348
518,5	0,347
519,0	0,347
519,5	0,345
520,0	0,344
520,5	0,343
521,0	0,343
521,5	0,342
522,0	0,341
522,5	0,340
523,0	0,338
523,5	0,336
524,0	0,334
524,5	0,332
525,0	0,331
525,5	0,329
526,0	0,328
526,5	0,326
527,0	0,324
527,5	0,322
528,0	0,320
528,5	0,319
529,0	0,317
529,5	0,316
530,0	0,314
530,5	0,313
531,0	0,311
531,5	0,310
532,0	0,308
532,5	0,306
533,0	0,304
533,5	0,303
534,0	0,301
534,5	0,299
535,0	0,297
535,5	0,296
536,0	0,294
536,5	0,292
537,0	0,291
537,5	0,289
538,0	0,287
538,5	0,286
539,0	0,284
539,5	0,282
540,0	0,281
540,5	0,279
541,0	0,278
541,5	0,276
542,0	0,274
542,5	0,273
543,0	0,272
543,5	0,270
544,0	0,269
544,5	0,268
545,0	0,267
545,5	0,266
546,0	0,265
546,5	0,264
547,0	0,262
547,5	0,261
548,0	0,261
548,5	0,261
549,0	0,260
549,5	0,260
550,0	0,259
550,5	0,258
551,0	0,257
551,5	0,256
552,0	0,256
552,5	0,255
553,0	0,255
553,5	0,255
554,0	0,255
554,5	0,254
555,0	0,253
555,5	0,252
556,0	0,251
556,5	0,250
557,0	0,250
557,5	0,250
558,0	0,250
558,5	0,250
559,0	0,250
559,5	0,249
560,0	0,249
560,5	0,249
561,0	0,249
561,5	0,249
562,0	0,250
562,5	0,250
563,0	0,251
563,5	0,252
564,0	0,252
564,5	0,252
565,0	0,253
565,5	0,253
566,0	0,252
566,5	0,252
567,0	0,252
567,5	0,253
568,0	0,253
568,5	0,253
569,0	0,253
569,5	0,254
570,0	0,254
570,5	0,255
571,0	0,255
571,5	0,256
572,0	0,257
572,5	0,258
573,0	0,258
573,5	0,259
574,0	0,259
574,5	0,260
575,0	0,260
575,5	0,262
576,0	0,262
576,5	0,263
577,0	0,265
577,5	0,266
578,0	0,267
578,5	0,269
579,0	0,270
579,5	0,271
580,0	0,272
580,5	0,274
581,0	0,274
581,5	0,275
582,0	0,276
582,5	0,277
583,0	0,278
583,5	0,279
584,0	0,280
584,5	0,281
585,0	0,283
585,5	0,285
586,0	0,287
586,5	0,289
587,0	0,291
587,5	0,293
588,0	0,295
588,5	0,296
589,0	0,298
589,5	0,299
590,0	0,300
590,5	0,302
591,0	0,303
591,5	0,306
592,0	0,308
592,5	0,310
593,0	0,311
593,5	0,313
594,0	0,315
594,5	0,317
595,0	0,318
595,5	0,320
596,0	0,322
596,5	0,324
597,0	0,326
597,5	0,328
598,0	0,329
598,5	0,331
599,0	0,334
599,5	0,336
600,0	0,339
600,5	0,341
601,0	0,344
601,5	0,346
602,0	0,349
602,5	0,352
603,0	0,354
603,5	0,357
604,0	0,359
604,5	0,361
605,0	0,363
605,5	0,365
606,0	0,368
606,5	0,370
607,0	0,373
607,5	0,375
608,0	0,379
608,5	0,382
609,0	0,385
609,5	0,388
610,0	0,391
610,5	0,394
611,0	0,395
611,5	0,397
612,0	0,400
612,5	0,402
613,0	0,406
613,5	0,409
614,0	0,412
614,5	0,415
615,0	0,417
615,5	0,420
616,0	0,422
616,5	0,425
617,0	0,429
617,5	0,433
618,0	0,436
618,5	0,440
619,0	0,443
619,5	0,446
620,0	0,448
620,5	0,451
621,0	0,453
621,5	0,455
622,0	0,459
622,5	0,461
623,0	0,464
623,5	0,468
624,0	0,473
624,5	0,476
625,0	0,480
625,5	0,483
626,0	0,487
626,5	0,490
627,0	0,492
627,5	0,494
628,0	0,497
628,5	0,499
629,0	0,502
629,5	0,504
630,0	0,508
630,5	0,511
631,0	0,514
631,5	0,517
632,0	0,521
632,5	0,524
633,0	0,528
633,5	0,532
634,0	0,535
634,5	0,539
635,0	0,541
635,5	0,543
636,0	0,545
636,5	0,547
637,0	0,550
637,5	0,553
638,0	0,555
638,5	0,557
639,0	0,560
639,5	0,563
640,0	0,565
640,5	0,568
641,0	0,571
641,5	0,574
642,0	0,577
642,5	0,580
643,0	0,583
643,5	0,585
644,0	0,587
644,5	0,588
645,0	0,589
645,5	0,591
646,0	0,592
646,5	0,594
647,0	0,597
647,5	0,601
648,0	0,603
648,5	0,604
649,0	0,605
649,5	0,605
650,0	0,607
650,5	0,608
651,0	0,610
651,5	0,613
652,0	0,616
652,5	0,618
653,0	0,618
653,5	0,619
654,0	0,621
654,5	0,622
655,0	0,623
655,5	0,624
656,0	0,625
656,5	0,626
657,0	0,627
657,5	0,628
658,0	0,628
658,5	0,630
659,0	0,630
659,5	0,631
660,0	0,632
660,5	0,633
661,0	0,633
661,5	0,635
662,0	0,635
662,5	0,636
663,0	0,636
663,5	0,634
664,0	0,633
664,5	0,632
665,0	0,632
665,5	0,632
666,0	0,632
666,5	0,631
667,0	0,631
667,5	0,630
668,0	0,630
668,5	0,630
669,0	0,629
669,5	0,629
670,0	0,629
670,5	0,628
671,0	0,626
671,5	0,622
672,0	0,620
672,5	0,618
673,0	0,616
673,5	0,615
674,0	0,615
674,5	0,615
675,0	0,615
675,5	0,615
676,0	0,614
676,5	0,612
677,0	0,610
677,5	0,607
678,0	0,604
678,5	0,602
679,0	0,601
679,5	0,598
680,0	0,597
680,5	0,596
681,0	0,592
681,5	0,589
682,0	0,586
682,5	0,583
683,0	0,581
683,5	0,579
684,0	0,576
684,5	0,574
685,0	0,572
685,5	0,569
686,0	0,566
686,5	0,563
687,0	0,560
687,5	0,559
688,0	0,557
688,5	0,555
689,0	0,553
689,5	0,551
690,0	0,547
690,5	0,544
691,0	0,540
691,5	0,536
692,0	0,533
692,5	0,530
693,0	0,528
693,5	0,526
694,0	0,525
694,5	0,523
695,0	0,520
695,5	0,517
696,0	0,513
696,5	0,508
697,0	0,505
697,5	0,502
698,0	0,499
698,5	0,496
699,0	0,494
699,5	0,491
700,0	0,489
700,5	0,487
701,0	0,485
701,5	0,481
702,0	0,479
702,5	0,475
703,0	0,472
703,5	0,469
704,0	0,465
704,5	0,462
705,0	0,459
705,5	0,458
706,0	0,455
706,5	0,451
707,0	0,448
707,5	0,445
708,0	0,442
708,5	0,439
709,0	0,436
709,5	0,433
710,0	0,430
710,5	0,427
711,0	0,423
711,5	0,419
712,0	0,416
712,5	0,413
713,0	0,410
713,5	0,407
714,0	0,405
714,5	0,402
715,0	0,400
715,5	0,398
716,0	0,395
716,5	0,392
717,0	0,388
717,5	0,385
718,0	0,383
718,5	0,380
719,0	0,379
719,5	0,378
720,0	0,377
720,5	0,375
721,0	0,372
721,5	0,368
722,0	0,365
722,5	0,361
723,0	0,359
723,5	0,356
724,0	0,354
724,5	0,352
725,0	0,349
725,5	0,346
726,0	0,344
726,5	0,342
727,0	0,340
727,5	0,339
728,0	0,337
728,5	0,334
729,0	0,332
729,5	0,329
730,0	0,327
730,5	0,324
731,0	0,320
731,5	0,318
732,0	0,315
732,5	0,313
733,0	0,312
733,5	0,311
734,0	0,311
734,5	0,310
735,0	0,309
735,5	0,307
736,0	0,304
736,5	0,302
737,0	0,298
737,5	0,295
738,0	0,292
738,5	0,290
739,0	0,287
739,5	0,285
740,0	0,284
740,5	0,283
741,0	0,282
741,5	0,281
742,0	0,279
742,5	0,277
743,0	0,276
743,5	0,273
744,0	0,270
744,5	0,269
745,0	0,268
745,5	0,267
746,0	0,266
746,5	0,263
747,0	0,262
747,5	0,261
748,0	0,259
748,5	0,258
749,0	0,256
749,5	0,255
750,0	0,254
750,5	0,253
751,0	0,251
751,5	0,249
752,0	0,247
752,5	0,246
753,0	0,245
753,5	0,244
754,0	0,244
754,5	0,243
755,0	0,242
755,5	0,241
756,0	0,238
756,5	0,236
757,0	0,233
757,5	0,231
758,0	0,231
758,5	0,231
759,0	0,231
759,5	0,231
760,0	0,232
760,5	0,231
761,0	0,230
761,5	0,229
762,0	0,227
762,5	0,225
763,0	0,223
763,5	0,221
764,0	0,220
764,5	0,219
765,0	0,219
765,5	0,219
766,0	0,219
766,5	0,218
767,0	0,217
767,5	0,216
768,0	0,214
768,5	0,212
769,0	0,211
769,5	0,208
770,0	0,206
770,5	0,205
771,0	0,203
771,5	0,202
772,0	0,201
772,5	0,202
773,0	0,202
773,5	0,202
774,0	0,202
774,5	0,202
775,0	0,201
775,5	0,200
776,0	0,199
776,5	0,199
777,0	0,199
777,5	0,199
778,0	0,198
778,5	0,198
779,0	0,196
779,5	0,195
780,0	0,194
780,5	0,193
781,0	0,192
781,5	0,191
782,0	0,191
782,5	0,190
783,0	0,190
783,5	0,188
784,0	0,187
784,5	0,185
785,0	0,184
785,5	0,181
786,0	0,179
786,5	0,177
787,0	0,177
787,5	0,176
788,0	0,178
788,5	0,179
789,0	0,180
789,5	0,179
790,0	0,179
790,5	0,177
791,0	0,177
791,5	0,175
792,0	0,174
792,5	0,172
793,0	0,172
793,5	0,170
794,0	0,169
794,5	0,169
795,0	0,170
795,5	0,170
796,0	0,171
796,5	0,172
797,0	0,172
797,5	0,172
798,0	0,170
798,5	0,167
799,0	0,167
799,5	0,167
800,0	0,165
800,5	0,163
801,0	0,161
801,5	0,159
802,0	0,158
802,5	0,157
803,0	0,156
803,5	0,155
804,0	0,157
804,5	0,159
805,0	0,161
805,5	0,162
806,0	0,163
806,5	0,164
807,0	0,165
807,5	0,165
808,0	0,165
808,5	0,161
809,0	0,158
809,5	0,156
810,0	0,153
810,5	0,150
811,0	0,147
811,5	0,148
812,0	0,149
812,5	0,150
813,0	0,151
813,5	0,151
814,0	0,152
814,5	0,153
815,0	0,152
815,5	0,150
816,0	0,148
816,5	0,148
817,0	0,146
817,5	0,144
818,0	0,141
818,5	0,139
819,0	0,138
819,5	0,137
820,0	0,137
820,5	0,136
821,0	0,136
821,5	0,136
822,0	0,137
822,5	0,138
823,0	0,137
823,5	0,137
824,0	0,138
824,5	0,139
825,0	0,139
825,5	0,138
826,0	0,137
826,5	0,136
827,0	0,136
827,5	0,136
828,0	0,135
828,5	0,135
829,0	0,135
829,5	0,135
830,0	0,135
830,5	0,134
831,0	0,134
831,5	0,135
832,0	0,135
832,5	0,135
833,0	0,133
833,5	0,131
834,0	0,130
834,5	0,129
835,0	0,130
835,5	0,130
836,0	0,131
836,5	0,131
837,0	0,131
837,5	0,131
838,0	0,128
838,5	0,126
839,0	0,125
839,5	0,124
840,0	0,123
840,5	0,121
841,0	0,121
841,5	0,121
842,0	0,121
842,5	0,122
843,0	0,123
843,5	0,123
844,0	0,123
844,5	0,122
845,0	0,122
845,5	0,120
846,0	0,120
846,5	0,119
847,0	0,118
847,5	0,121
848,0	0,123
848,5	0,122
849,0	0,122
849,5	0,120
850,0	0,117


AUNR/12KRM
19/06/2019 14:46
Longitud de onda (nm)	10mm Absorbance
//WLCalib: Shift 	0,23667	
//WLCalib: 261S 	-0,08000	
//WLCalib: 362S 	-0,58000	
//WLCalib: 484S 	-0,83000	
//WLCalib: 529S 	-0,65000	
//WLCalib: 823S 	-0,29000	
//QSpecEnd: 
190,0	0,656
190,5	0,680
191,0	0,691
191,5	0,708
192,0	0,737
192,5	0,764
193,0	0,778
193,5	0,787
194,0	0,791
194,5	0,798
195,0	0,796
195,5	0,795
196,0	0,789
196,5	0,793
197,0	0,796
197,5	0,790
198,0	0,783
198,5	0,769
199,0	0,758
199,5	0,742
200,0	0,727
200,5	0,715
201,0	0,702
201,5	0,693
202,0	0,685
202,5	0,670
203,0	0,660
203,5	0,651
204,0	0,642
204,5	0,631
205,0	0,623
205,5	0,615
206,0	0,608
206,5	0,602
207,0	0,598
207,5	0,591
208,0	0,587
208,5	0,584
209,0	0,579
209,5	0,571
210,0	0,565
210,5	0,561
211,0	0,558
211,5	0,553
212,0	0,550
212,5	0,548
213,0	0,546
213,5	0,542
214,0	0,536
214,5	0,533
215,0	0,531
215,5	0,529
216,0	0,526
216,5	0,523
217,0	0,523
217,5	0,523
218,0	0,522
218,5	0,519
219,0	0,518
219,5	0,517
220,0	0,516
220,5	0,513
221,0	0,510
221,5	0,509
222,0	0,508
222,5	0,507
223,0	0,505
223,5	0,502
224,0	0,501
224,5	0,500
225,0	0,498
225,5	0,496
226,0	0,493
226,5	0,492
227,0	0,490
227,5	0,489
228,0	0,489
228,5	0,489
229,0	0,490
229,5	0,491
230,0	0,492
230,5	0,491
231,0	0,491
231,5	0,490
232,0	0,489
232,5	0,488
233,0	0,488
233,5	0,487
234,0	0,486
234,5	0,486
235,0	0,486
235,5	0,486
236,0	0,486
236,5	0,485
237,0	0,485
237,5	0,485
238,0	0,485
238,5	0,484
239,0	0,484
239,5	0,483
240,0	0,482
240,5	0,482
241,0	0,482
241,5	0,483
242,0	0,484
242,5	0,485
243,0	0,485
243,5	0,486
244,0	0,485
244,5	0,484
245,0	0,483
245,5	0,482
246,0	0,482
246,5	0,482
247,0	0,483
247,5	0,484
248,0	0,486
248,5	0,487
249,0	0,487
249,5	0,486
250,0	0,485
250,5	0,484
251,0	0,483
251,5	0,482
252,0	0,482
252,5	0,482
253,0	0,483
253,5	0,483
254,0	0,483
254,5	0,482
255,0	0,482
255,5	0,481
256,0	0,481
256,5	0,480
257,0	0,480
257,5	0,479
258,0	0,478
258,5	0,477
259,0	0,477
259,5	0,477
260,0	0,478
260,5	0,479
261,0	0,479
261,5	0,479
262,0	0,479
262,5	0,478
263,0	0,476
263,5	0,476
264,0	0,475
264,5	0,474
265,0	0,473
265,5	0,472
266,0	0,471
266,5	0,470
267,0	0,469
267,5	0,468
268,0	0,467
268,5	0,467
269,0	0,466
269,5	0,464
270,0	0,463
270,5	0,462
271,0	0,461
271,5	0,460
272,0	0,460
272,5	0,459
273,0	0,458
273,5	0,458
274,0	0,457
274,5	0,455
275,0	0,453
275,5	0,451
276,0	0,449
276,5	0,448
277,0	0,446
277,5	0,445
278,0	0,444
278,5	0,442
279,0	0,440
279,5	0,438
280,0	0,436
280,5	0,435
281,0	0,433
281,5	0,432
282,0	0,431
282,5	0,430
283,0	0,429
283,5	0,428
284,0	0,426
284,5	0,424
285,0	0,423
285,5	0,421
286,0	0,420
286,5	0,419
287,0	0,418
287,5	0,417
288,0	0,416
288,5	0,415
289,0	0,414
289,5	0,412
290,0	0,411
290,5	0,410
291,0	0,409
291,5	0,408
292,0	0,407
292,5	0,407
293,0	0,406
293,5	0,405
294,0	0,404
294,5	0,403
295,0	0,402
295,5	0,401
296,0	0,400
296,5	0,399
297,0	0,398
297,5	0,397
298,0	0,396
298,5	0,395
299,0	0,394
299,5	0,394
300,0	0,393
300,5	0,391
301,0	0,390
301,5	0,389
302,0	0,388
302,5	0,387
303,0	0,386
303,5	0,385
304,0	0,383
304,5	0,383
305,0	0,382
305,5	0,381
306,0	0,380
306,5	0,380
307,0	0,379
307,5	0,378
308,0	0,377
308,5	0,376
309,0	0,375
309,5	0,374
310,0	0,373
310,5	0,372
311,0	0,370
311,5	0,369
312,0	0,368
312,5	0,367
313,0	0,366
313,5	0,365
314,0	0,364
314,5	0,364
315,0	0,363
315,5	0,363
316,0	0,362
316,5	0,361
317,0	0,361
317,5	0,360
318,0	0,359
318,5	0,357
319,0	0,357
319,5	0,356
320,0	0,354
320,5	0,353
321,0	0,352
321,5	0,351
322,0	0,350
322,5	0,349
323,0	0,348
323,5	0,347
324,0	0,346
324,5	0,345
325,0	0,344
325,5	0,344
326,0	0,343
326,5	0,342
327,0	0,341
327,5	0,340
328,0	0,339
328,5	0,338
329,0	0,337
329,5	0,336
330,0	0,336
330,5	0,335
331,0	0,334
331,5	0,334
332,0	0,333
332,5	0,333
333,0	0,332
333,5	0,331
334,0	0,330
334,5	0,329
335,0	0,328
335,5	0,327
336,0	0,327
336,5	0,326
337,0	0,325
337,5	0,324
338,0	0,324
338,5	0,323
339,0	0,322
339,5	0,322
340,0	0,321
340,5	0,321
341,0	0,320
341,5	0,320
342,0	0,319
342,5	0,319
343,0	0,319
343,5	0,318
344,0	0,317
344,5	0,316
345,0	0,316
345,5	0,315
346,0	0,315
346,5	0,314
347,0	0,314
347,5	0,315
348,0	0,315
348,5	0,314
349,0	0,314
349,5	0,314
350,0	0,314
350,5	0,313
351,0	0,313
351,5	0,312
352,0	0,312
352,5	0,312
353,0	0,312
353,5	0,311
354,0	0,311
354,5	0,310
355,0	0,310
355,5	0,309
356,0	0,309
356,5	0,309
357,0	0,309
357,5	0,309
358,0	0,310
358,5	0,310
359,0	0,310
359,5	0,310
360,0	0,310
360,5	0,309
361,0	0,309
361,5	0,308
362,0	0,308
362,5	0,308
363,0	0,308
363,5	0,309
364,0	0,309
364,5	0,309
365,0	0,309
365,5	0,309
366,0	0,308
366,5	0,308
367,0	0,308
367,5	0,308
368,0	0,308
368,5	0,307
369,0	0,307
369,5	0,307
370,0	0,306
370,5	0,306
371,0	0,306
371,5	0,306
372,0	0,306
372,5	0,306
373,0	0,306
373,5	0,305
374,0	0,305
374,5	0,305
375,0	0,305
375,5	0,305
376,0	0,304
376,5	0,303
377,0	0,303
377,5	0,302
378,0	0,302
378,5	0,301
379,0	0,301
379,5	0,301
380,0	0,301
380,5	0,301
381,0	0,301
381,5	0,301
382,0	0,300
382,5	0,300
383,0	0,300
383,5	0,300
384,0	0,300
384,5	0,300
385,0	0,299
385,5	0,299
386,0	0,299
386,5	0,299
387,0	0,298
387,5	0,297
388,0	0,297
388,5	0,296
389,0	0,295
389,5	0,295
390,0	0,295
390,5	0,295
391,0	0,295
391,5	0,295
392,0	0,295
392,5	0,294
393,0	0,294
393,5	0,294
394,0	0,293
394,5	0,293
395,0	0,293
395,5	0,293
396,0	0,293
396,5	0,292
397,0	0,292
397,5	0,292
398,0	0,291
398,5	0,292
399,0	0,291
399,5	0,291
400,0	0,291
400,5	0,290
401,0	0,290
401,5	0,289
402,0	0,288
402,5	0,288
403,0	0,288
403,5	0,287
404,0	0,287
404,5	0,286
405,0	0,286
405,5	0,286
406,0	0,286
406,5	0,286
407,0	0,285
407,5	0,285
408,0	0,285
408,5	0,285
409,0	0,285
409,5	0,285
410,0	0,284
410,5	0,283
411,0	0,283
411,5	0,282
412,0	0,282
412,5	0,282
413,0	0,282
413,5	0,282
414,0	0,282
414,5	0,281
415,0	0,281
415,5	0,281
416,0	0,280
416,5	0,280
417,0	0,280
417,5	0,280
418,0	0,279
418,5	0,279
419,0	0,278
419,5	0,277
420,0	0,277
420,5	0,277
421,0	0,277
421,5	0,277
422,0	0,276
422,5	0,276
423,0	0,276
423,5	0,275
424,0	0,275
424,5	0,275
425,0	0,275
425,5	0,275
426,0	0,275
426,5	0,275
427,0	0,274
427,5	0,274
428,0	0,273
428,5	0,273
429,0	0,272
429,5	0,273
430,0	0,273
430,5	0,273
431,0	0,273
431,5	0,272
432,0	0,272
432,5	0,271
433,0	0,271
433,5	0,271
434,0	0,271
434,5	0,271
435,0	0,270
435,5	0,270
436,0	0,270
436,5	0,270
437,0	0,270
437,5	0,270
438,0	0,269
438,5	0,269
439,0	0,269
439,5	0,268
440,0	0,268
440,5	0,267
441,0	0,267
441,5	0,266
442,0	0,266
442,5	0,266
443,0	0,266
443,5	0,266
444,0	0,266
444,5	0,266
445,0	0,266
445,5	0,266
446,0	0,266
446,5	0,265
447,0	0,265
447,5	0,265
448,0	0,264
448,5	0,264
449,0	0,264
449,5	0,264
450,0	0,264
450,5	0,264
451,0	0,264
451,5	0,264
452,0	0,264
452,5	0,264
453,0	0,263
453,5	0,263
454,0	0,263
454,5	0,263
455,0	0,263
455,5	0,263
456,0	0,263
456,5	0,262
457,0	0,262
457,5	0,262
458,0	0,262
458,5	0,262
459,0	0,262
459,5	0,261
460,0	0,261
460,5	0,261
461,0	0,261
461,5	0,261
462,0	0,261
462,5	0,261
463,0	0,261
463,5	0,261
464,0	0,261
464,5	0,261
465,0	0,262
465,5	0,262
466,0	0,262
466,5	0,262
467,0	0,262
467,5	0,262
468,0	0,262
468,5	0,262
469,0	0,261
469,5	0,261
470,0	0,261
470,5	0,261
471,0	0,261
471,5	0,262
472,0	0,263
472,5	0,263
473,0	0,264
473,5	0,264
474,0	0,265
474,5	0,265
475,0	0,265
475,5	0,265
476,0	0,265
476,5	0,266
477,0	0,266
477,5	0,266
478,0	0,266
478,5	0,267
479,0	0,267
479,5	0,267
480,0	0,268
480,5	0,268
481,0	0,269
481,5	0,270
482,0	0,271
482,5	0,271
483,0	0,272
483,5	0,273
484,0	0,274
484,5	0,274
485,0	0,275
485,5	0,275
486,0	0,277
486,5	0,277
487,0	0,278
487,5	0,279
488,0	0,280
488,5	0,281
489,0	0,282
489,5	0,284
490,0	0,285
490,5	0,287
491,0	0,288
491,5	0,290
492,0	0,292
492,5	0,293
493,0	0,295
493,5	0,296
494,0	0,296
494,5	0,298
495,0	0,299
495,5	0,300
496,0	0,302
496,5	0,304
497,0	0,306
497,5	0,308
498,0	0,310
498,5	0,312
499,0	0,313
499,5	0,315
500,0	0,317
500,5	0,318
501,0	0,321
501,5	0,323
502,0	0,325
502,5	0,327
503,0	0,328
503,5	0,330
504,0	0,331
504,5	0,333
505,0	0,335
505,5	0,337
506,0	0,339
506,5	0,341
507,0	0,342
507,5	0,343
508,0	0,344
508,5	0,345
509,0	0,346
509,5	0,347
510,0	0,349
510,5	0,350
511,0	0,351
511,5	0,351
512,0	0,352
512,5	0,352
513,0	0,352
513,5	0,353
514,0	0,353
514,5	0,353
515,0	0,354
515,5	0,354
516,0	0,353
516,5	0,353
517,0	0,353
517,5	0,353
518,0	0,353
518,5	0,352
519,0	0,351
519,5	0,350
520,0	0,350
520,5	0,349
521,0	0,348
521,5	0,347
522,0	0,346
522,5	0,345
523,0	0,344
523,5	0,342
524,0	0,340
524,5	0,339
525,0	0,337
525,5	0,335
526,0	0,333
526,5	0,331
527,0	0,329
527,5	0,327
528,0	0,325
528,5	0,324
529,0	0,323
529,5	0,322
530,0	0,320
530,5	0,319
531,0	0,318
531,5	0,316
532,0	0,314
532,5	0,312
533,0	0,310
533,5	0,308
534,0	0,306
534,5	0,304
535,0	0,303
535,5	0,302
536,0	0,300
536,5	0,299
537,0	0,297
537,5	0,295
538,0	0,294
538,5	0,292
539,0	0,289
539,5	0,288
540,0	0,286
540,5	0,285
541,0	0,283
541,5	0,282
542,0	0,281
542,5	0,280
543,0	0,278
543,5	0,277
544,0	0,276
544,5	0,275
545,0	0,274
545,5	0,272
546,0	0,271
546,5	0,269
547,0	0,268
547,5	0,267
548,0	0,266
548,5	0,266
549,0	0,265
549,5	0,265
550,0	0,264
550,5	0,263
551,0	0,262
551,5	0,261
552,0	0,261
552,5	0,261
553,0	0,260
553,5	0,260
554,0	0,260
554,5	0,259
555,0	0,259
555,5	0,259
556,0	0,258
556,5	0,257
557,0	0,257
557,5	0,256
558,0	0,256
558,5	0,256
559,0	0,255
559,5	0,255
560,0	0,255
560,5	0,254
561,0	0,254
561,5	0,254
562,0	0,255
562,5	0,255
563,0	0,256
563,5	0,257
564,0	0,257
564,5	0,258
565,0	0,258
565,5	0,258
566,0	0,258
566,5	0,258
567,0	0,258
567,5	0,259
568,0	0,259
568,5	0,259
569,0	0,260
569,5	0,260
570,0	0,260
570,5	0,260
571,0	0,260
571,5	0,261
572,0	0,261
572,5	0,262
573,0	0,263
573,5	0,264
574,0	0,265
574,5	0,266
575,0	0,267
575,5	0,268
576,0	0,269
576,5	0,270
577,0	0,271
577,5	0,272
578,0	0,274
578,5	0,275
579,0	0,276
579,5	0,277
580,0	0,278
580,5	0,279
581,0	0,280
581,5	0,280
582,0	0,282
582,5	0,283
583,0	0,284
583,5	0,285
584,0	0,286
584,5	0,287
585,0	0,289
585,5	0,291
586,0	0,292
586,5	0,294
587,0	0,296
587,5	0,298
588,0	0,300
588,5	0,301
589,0	0,303
589,5	0,304
590,0	0,306
590,5	0,307
591,0	0,308
591,5	0,310
592,0	0,312
592,5	0,314
593,0	0,316
593,5	0,319
594,0	0,321
594,5	0,323
595,0	0,325
595,5	0,326
596,0	0,327
596,5	0,329
597,0	0,331
597,5	0,333
598,0	0,335
598,5	0,338
599,0	0,341
599,5	0,343
600,0	0,346
600,5	0,348
601,0	0,350
601,5	0,352
602,0	0,354
602,5	0,357
603,0	0,359
603,5	0,362
604,0	0,365
604,5	0,368
605,0	0,370
605,5	0,371
606,0	0,373
606,5	0,376
607,0	0,378
607,5	0,380
608,0	0,384
608,5	0,387
609,0	0,391
609,5	0,394
610,0	0,396
610,5	0,398
611,0	0,401
611,5	0,403
612,0	0,405
612,5	0,407
613,0	0,411
613,5	0,414
614,0	0,417
614,5	0,420
615,0	0,422
615,5	0,425
616,0	0,428
616,5	0,431
617,0	0,435
617,5	0,438
618,0	0,443
618,5	0,446
619,0	0,448
619,5	0,451
620,0	0,453
620,5	0,455
621,0	0,458
621,5	0,460
622,0	0,463
622,5	0,467
623,0	0,472
623,5	0,476
624,0	0,479
624,5	0,482
625,0	0,485
625,5	0,488
626,0	0,490
626,5	0,493
627,0	0,496
627,5	0,499
628,0	0,502
628,5	0,505
629,0	0,508
629,5	0,512
630,0	0,515
630,5	0,518
631,0	0,521
631,5	0,524
632,0	0,526
632,5	0,528
633,0	0,531
633,5	0,534
634,0	0,538
634,5	0,542
635,0	0,546
635,5	0,549
636,0	0,552
636,5	0,556
637,0	0,559
637,5	0,561
638,0	0,563
638,5	0,565
639,0	0,567
639,5	0,569
640,0	0,570
640,5	0,572
641,0	0,574
641,5	0,577
642,0	0,581
642,5	0,584
643,0	0,587
643,5	0,589
644,0	0,592
644,5	0,594
645,0	0,596
645,5	0,598
646,0	0,600
646,5	0,601
647,0	0,603
647,5	0,606
648,0	0,607
648,5	0,608
649,0	0,610
649,5	0,613
650,0	0,615
650,5	0,616
651,0	0,617
651,5	0,618
652,0	0,620
652,5	0,621
653,0	0,621
653,5	0,623
654,0	0,625
654,5	0,627
655,0	0,629
655,5	0,629
656,0	0,630
656,5	0,631
657,0	0,633
657,5	0,634
658,0	0,635
658,5	0,636
659,0	0,636
659,5	0,636
660,0	0,637
660,5	0,638
661,0	0,639
661,5	0,640
662,0	0,640
662,5	0,640
663,0	0,639
663,5	0,639
664,0	0,638
664,5	0,638
665,0	0,639
665,5	0,640
666,0	0,639
666,5	0,638
667,0	0,636
667,5	0,635
668,0	0,634
668,5	0,635
669,0	0,635
669,5	0,635
670,0	0,634
670,5	0,632
671,0	0,630
671,5	0,628
672,0	0,626
672,5	0,624
673,0	0,623
673,5	0,622
674,0	0,620
674,5	0,619
675,0	0,619
675,5	0,617
676,0	0,615
676,5	0,613
677,0	0,610
677,5	0,607
678,0	0,606
678,5	0,605
679,0	0,604
679,5	0,603
680,0	0,603
680,5	0,602
681,0	0,599
681,5	0,596
682,0	0,594
682,5	0,591
683,0	0,589
683,5	0,587
684,0	0,583
684,5	0,580
685,0	0,577
685,5	0,573
686,0	0,569
686,5	0,567
687,0	0,565
687,5	0,563
688,0	0,561
688,5	0,559
689,0	0,557
689,5	0,555
690,0	0,553
690,5	0,550
691,0	0,547
691,5	0,544
692,0	0,540
692,5	0,536
693,0	0,534
693,5	0,532
694,0	0,530
694,5	0,527
695,0	0,525
695,5	0,521
696,0	0,517
696,5	0,513
697,0	0,509
697,5	0,507
698,0	0,505
698,5	0,503
699,0	0,501
699,5	0,498
700,0	0,495
700,5	0,493
701,0	0,490
701,5	0,487
702,0	0,484
702,5	0,481
703,0	0,477
703,5	0,474
704,0	0,470
704,5	0,467
705,0	0,463
705,5	0,461
706,0	0,457
706,5	0,455
707,0	0,453
707,5	0,450
708,0	0,447
708,5	0,445
709,0	0,442
709,5	0,440
710,0	0,437
710,5	0,433
711,0	0,430
711,5	0,427
712,0	0,423
712,5	0,420
713,0	0,417
713,5	0,413
714,0	0,410
714,5	0,408
715,0	0,405
715,5	0,402
716,0	0,400
716,5	0,396
717,0	0,393
717,5	0,390
718,0	0,388
718,5	0,386
719,0	0,384
719,5	0,383
720,0	0,381
720,5	0,378
721,0	0,375
721,5	0,373
722,0	0,369
722,5	0,366
723,0	0,364
723,5	0,362
724,0	0,360
724,5	0,358
725,0	0,355
725,5	0,352
726,0	0,350
726,5	0,349
727,0	0,347
727,5	0,345
728,0	0,343
728,5	0,341
729,0	0,339
729,5	0,336
730,0	0,333
730,5	0,330
731,0	0,327
731,5	0,324
732,0	0,322
732,5	0,321
733,0	0,320
733,5	0,318
734,0	0,317
734,5	0,315
735,0	0,314
735,5	0,311
736,0	0,309
736,5	0,307
737,0	0,305
737,5	0,302
738,0	0,299
738,5	0,296
739,0	0,293
739,5	0,290
740,0	0,288
740,5	0,287
741,0	0,287
741,5	0,287
742,0	0,287
742,5	0,285
743,0	0,283
743,5	0,282
744,0	0,280
744,5	0,278
745,0	0,277
745,5	0,275
746,0	0,273
746,5	0,271
747,0	0,269
747,5	0,267
748,0	0,265
748,5	0,264
749,0	0,263
749,5	0,261
750,0	0,260
750,5	0,259
751,0	0,257
751,5	0,255
752,0	0,252
752,5	0,250
753,0	0,250
753,5	0,249
754,0	0,249
754,5	0,248
755,0	0,248
755,5	0,248
756,0	0,246
756,5	0,244
757,0	0,241
757,5	0,240
758,0	0,240
758,5	0,240
759,0	0,240
759,5	0,239
760,0	0,239
760,5	0,239
761,0	0,237
761,5	0,235
762,0	0,233
762,5	0,231
763,0	0,230
763,5	0,228
764,0	0,227
764,5	0,226
765,0	0,226
765,5	0,225
766,0	0,225
766,5	0,224
767,0	0,223
767,5	0,222
768,0	0,222
768,5	0,220
769,0	0,219
769,5	0,217
770,0	0,214
770,5	0,212
771,0	0,211
771,5	0,209
772,0	0,208
772,5	0,209
773,0	0,210
773,5	0,209
774,0	0,208
774,5	0,207
775,0	0,205
775,5	0,203
776,0	0,201
776,5	0,201
777,0	0,201
777,5	0,201
778,0	0,201
778,5	0,200
779,0	0,198
779,5	0,197
780,0	0,195
780,5	0,194
781,0	0,193
781,5	0,195
782,0	0,196
782,5	0,196
783,0	0,196
783,5	0,195
784,0	0,194
784,5	0,192
785,0	0,191
785,5	0,189
786,0	0,187
786,5	0,186
787,0	0,184
787,5	0,184
788,0	0,184
788,5	0,184
789,0	0,185
789,5	0,184
790,0	0,184
790,5	0,183
791,0	0,183
791,5	0,182
792,0	0,180
792,5	0,179
793,0	0,180
793,5	0,178
794,0	0,177
794,5	0,177
795,0	0,177
795,5	0,179
796,0	0,179
796,5	0,178
797,0	0,177
797,5	0,176
798,0	0,174
798,5	0,170
799,0	0,169
799,5	0,167
800,0	0,165
800,5	0,165
801,0	0,163
801,5	0,162
802,0	0,163
802,5	0,163
803,0	0,162
803,5	0,160
804,0	0,162
804,5	0,162
805,0	0,164
805,5	0,165
806,0	0,167
806,5	0,169
807,0	0,169
807,5	0,169
808,0	0,168
808,5	0,165
809,0	0,162
809,5	0,158
810,0	0,155
810,5	0,154
811,0	0,153
811,5	0,153
812,0	0,154
812,5	0,157
813,0	0,160
813,5	0,160
814,0	0,159
814,5	0,159
815,0	0,158
815,5	0,157
816,0	0,155
816,5	0,153
817,0	0,150
817,5	0,148
818,0	0,146
818,5	0,143
819,0	0,141
819,5	0,142
820,0	0,143
820,5	0,143
821,0	0,143
821,5	0,143
822,0	0,144
822,5	0,144
823,0	0,143
823,5	0,143
824,0	0,144
824,5	0,145
825,0	0,144
825,5	0,143
826,0	0,141
826,5	0,141
827,0	0,142
827,5	0,141
828,0	0,139
828,5	0,139
829,0	0,139
829,5	0,139
830,0	0,140
830,5	0,140
831,0	0,140
831,5	0,142
832,0	0,142
832,5	0,141
833,0	0,139
833,5	0,137
834,0	0,135
834,5	0,135
835,0	0,135
835,5	0,135
836,0	0,135
836,5	0,136
837,0	0,136
837,5	0,135
838,0	0,133
838,5	0,132
839,0	0,131
839,5	0,130
840,0	0,130
840,5	0,129
841,0	0,129
841,5	0,129
842,0	0,128
842,5	0,128
843,0	0,129
843,5	0,130
844,0	0,130
844,5	0,129
845,0	0,128
845,5	0,126
846,0	0,122
846,5	0,120
847,0	0,119
847,5	0,120
848,0	0,123
848,5	0,126
849,0	0,128
849,5	0,128
850,0	0,128


AuNr_11krpm
19/06/2019 14:52
Longitud de onda (nm)	10mm Absorbance
//WLCalib: Shift 	0,23667	
//WLCalib: 261S 	-0,08000	
//WLCalib: 362S 	-0,58000	
//WLCalib: 484S 	-0,83000	
//WLCalib: 529S 	-0,65000	
//WLCalib: 823S 	-0,29000	
//QSpecEnd: 
190,0	0,946
190,5	0,963
191,0	0,985
191,5	1,000
192,0	1,006
192,5	1,002
193,0	1,024
193,5	1,037
194,0	1,045
194,5	1,047
195,0	1,032
195,5	1,029
196,0	1,038
196,5	1,037
197,0	1,036
197,5	1,027
198,0	1,024
198,5	1,011
199,0	1,000
199,5	0,991
200,0	0,973
200,5	0,965
201,0	0,956
201,5	0,942
202,0	0,930
202,5	0,912
203,0	0,895
203,5	0,888
204,0	0,877
204,5	0,869
205,0	0,862
205,5	0,858
206,0	0,851
206,5	0,843
207,0	0,833
207,5	0,825
208,0	0,820
208,5	0,815
209,0	0,806
209,5	0,803
210,0	0,800
210,5	0,799
211,0	0,794
211,5	0,790
212,0	0,786
212,5	0,785
213,0	0,786
213,5	0,785
214,0	0,785
214,5	0,782
215,0	0,783
215,5	0,778
216,0	0,771
216,5	0,766
217,0	0,762
217,5	0,761
218,0	0,761
218,5	0,761
219,0	0,761
219,5	0,760
220,0	0,759
220,5	0,754
221,0	0,750
221,5	0,748
222,0	0,745
222,5	0,744
223,0	0,743
223,5	0,741
224,0	0,742
224,5	0,741
225,0	0,740
225,5	0,738
226,0	0,736
226,5	0,734
227,0	0,733
227,5	0,732
228,0	0,731
228,5	0,732
229,0	0,733
229,5	0,734
230,0	0,736
230,5	0,736
231,0	0,735
231,5	0,733
232,0	0,732
232,5	0,730
233,0	0,730
233,5	0,730
234,0	0,730
234,5	0,731
235,0	0,731
235,5	0,732
236,0	0,732
236,5	0,732
237,0	0,732
237,5	0,732
238,0	0,732
238,5	0,731
239,0	0,730
239,5	0,729
240,0	0,728
240,5	0,728
241,0	0,728
241,5	0,729
242,0	0,731
242,5	0,733
243,0	0,734
243,5	0,735
244,0	0,735
244,5	0,733
245,0	0,731
245,5	0,730
246,0	0,730
246,5	0,731
247,0	0,733
247,5	0,735
248,0	0,737
248,5	0,738
249,0	0,739
249,5	0,738
250,0	0,737
250,5	0,736
251,0	0,736
251,5	0,736
252,0	0,736
252,5	0,737
253,0	0,738
253,5	0,738
254,0	0,738
254,5	0,737
255,0	0,735
255,5	0,734
256,0	0,734
256,5	0,732
257,0	0,731
257,5	0,730
258,0	0,728
258,5	0,727
259,0	0,727
259,5	0,728
260,0	0,729
260,5	0,730
261,0	0,732
261,5	0,732
262,0	0,732
262,5	0,732
263,0	0,730
263,5	0,729
264,0	0,728
264,5	0,726
265,0	0,725
265,5	0,723
266,0	0,721
266,5	0,721
267,0	0,721
267,5	0,720
268,0	0,720
268,5	0,719
269,0	0,718
269,5	0,716
270,0	0,713
270,5	0,711
271,0	0,709
271,5	0,708
272,0	0,707
272,5	0,705
273,0	0,704
273,5	0,704
274,0	0,702
274,5	0,699
275,0	0,696
275,5	0,693
276,0	0,691
276,5	0,689
277,0	0,686
277,5	0,684
278,0	0,683
278,5	0,681
279,0	0,680
279,5	0,678
280,0	0,676
280,5	0,673
281,0	0,672
281,5	0,670
282,0	0,668
282,5	0,666
283,0	0,665
283,5	0,663
284,0	0,662
284,5	0,659
285,0	0,656
285,5	0,653
286,0	0,651
286,5	0,649
287,0	0,648
287,5	0,646
288,0	0,645
288,5	0,644
289,0	0,642
289,5	0,640
290,0	0,638
290,5	0,636
291,0	0,635
291,5	0,633
292,0	0,632
292,5	0,630
293,0	0,629
293,5	0,627
294,0	0,625
294,5	0,624
295,0	0,623
295,5	0,621
296,0	0,620
296,5	0,619
297,0	0,618
297,5	0,617
298,0	0,615
298,5	0,614
299,0	0,613
299,5	0,611
300,0	0,610
300,5	0,607
301,0	0,605
301,5	0,604
302,0	0,603
302,5	0,602
303,0	0,601
303,5	0,600
304,0	0,599
304,5	0,598
305,0	0,596
305,5	0,595
306,0	0,593
306,5	0,591
307,0	0,590
307,5	0,588
308,0	0,586
308,5	0,584
309,0	0,583
309,5	0,582
310,0	0,581
310,5	0,579
311,0	0,579
311,5	0,577
312,0	0,575
312,5	0,574
313,0	0,572
313,5	0,570
314,0	0,569
314,5	0,568
315,0	0,567
315,5	0,566
316,0	0,566
316,5	0,564
317,0	0,562
317,5	0,561
318,0	0,559
318,5	0,557
319,0	0,555
319,5	0,553
320,0	0,551
320,5	0,549
321,0	0,548
321,5	0,547
322,0	0,545
322,5	0,544
323,0	0,543
323,5	0,541
324,0	0,540
324,5	0,539
325,0	0,538
325,5	0,537
326,0	0,536
326,5	0,535
327,0	0,534
327,5	0,533
328,0	0,531
328,5	0,530
329,0	0,528
329,5	0,526
330,0	0,525
330,5	0,524
331,0	0,523
331,5	0,522
332,0	0,520
332,5	0,518
333,0	0,517
333,5	0,516
334,0	0,515
334,5	0,514
335,0	0,513
335,5	0,512
336,0	0,511
336,5	0,510
337,0	0,509
337,5	0,507
338,0	0,506
338,5	0,505
339,0	0,505
339,5	0,504
340,0	0,503
340,5	0,502
341,0	0,501
341,5	0,500
342,0	0,498
342,5	0,497
343,0	0,496
343,5	0,495
344,0	0,495
344,5	0,494
345,0	0,494
345,5	0,493
346,0	0,493
346,5	0,492
347,0	0,492
347,5	0,492
348,0	0,491
348,5	0,491
349,0	0,490
349,5	0,490
350,0	0,489
350,5	0,489
351,0	0,488
351,5	0,488
352,0	0,487
352,5	0,487
353,0	0,486
353,5	0,485
354,0	0,485
354,5	0,485
355,0	0,485
355,5	0,485
356,0	0,485
356,5	0,485
357,0	0,485
357,5	0,485
358,0	0,485
358,5	0,485
359,0	0,485
359,5	0,485
360,0	0,485
360,5	0,484
361,0	0,483
361,5	0,482
362,0	0,481
362,5	0,482
363,0	0,482
363,5	0,483
364,0	0,484
364,5	0,484
365,0	0,484
365,5	0,483
366,0	0,482
366,5	0,481
367,0	0,481
367,5	0,481
368,0	0,482
368,5	0,482
369,0	0,482
369,5	0,481
370,0	0,481
370,5	0,480
371,0	0,479
371,5	0,479
372,0	0,479
372,5	0,479
373,0	0,479
373,5	0,479
374,0	0,478
374,5	0,477
375,0	0,477
375,5	0,476
376,0	0,476
376,5	0,475
377,0	0,474
377,5	0,474
378,0	0,474
378,5	0,473
379,0	0,473
379,5	0,472
380,0	0,472
380,5	0,471
381,0	0,471
381,5	0,470
382,0	0,469
382,5	0,469
383,0	0,469
383,5	0,469
384,0	0,468
384,5	0,468
385,0	0,468
385,5	0,468
386,0	0,467
386,5	0,467
387,0	0,466
387,5	0,465
388,0	0,464
388,5	0,464
389,0	0,463
389,5	0,463
390,0	0,463
390,5	0,462
391,0	0,462
391,5	0,461
392,0	0,461
392,5	0,460
393,0	0,459
393,5	0,459
394,0	0,459
394,5	0,459
395,0	0,459
395,5	0,459
396,0	0,459
396,5	0,458
397,0	0,458
397,5	0,457
398,0	0,457
398,5	0,456
399,0	0,456
399,5	0,455
400,0	0,454
400,5	0,454
401,0	0,453
401,5	0,452
402,0	0,451
402,5	0,451
403,0	0,450
403,5	0,450
404,0	0,450
404,5	0,449
405,0	0,449
405,5	0,448
406,0	0,448
406,5	0,447
407,0	0,447
407,5	0,447
408,0	0,446
408,5	0,446
409,0	0,446
409,5	0,445
410,0	0,445
410,5	0,444
411,0	0,443
411,5	0,442
412,0	0,441
412,5	0,441
413,0	0,441
413,5	0,441
414,0	0,441
414,5	0,440
415,0	0,440
415,5	0,440
416,0	0,439
416,5	0,438
417,0	0,438
417,5	0,437
418,0	0,436
418,5	0,436
419,0	0,435
419,5	0,434
420,0	0,434
420,5	0,434
421,0	0,433
421,5	0,433
422,0	0,432
422,5	0,432
423,0	0,432
423,5	0,432
424,0	0,432
424,5	0,432
425,0	0,432
425,5	0,432
426,0	0,432
426,5	0,431
427,0	0,430
427,5	0,429
428,0	0,429
428,5	0,428
429,0	0,428
429,5	0,428
430,0	0,427
430,5	0,427
431,0	0,427
431,5	0,426
432,0	0,426
432,5	0,425
433,0	0,424
433,5	0,424
434,0	0,424
434,5	0,424
435,0	0,423
435,5	0,423
436,0	0,423
436,5	0,423
437,0	0,422
437,5	0,422
438,0	0,422
438,5	0,421
439,0	0,421
439,5	0,420
440,0	0,419
440,5	0,419
441,0	0,418
441,5	0,417
442,0	0,417
442,5	0,416
443,0	0,417
443,5	0,417
444,0	0,417
444,5	0,416
445,0	0,416
445,5	0,416
446,0	0,415
446,5	0,415
447,0	0,415
447,5	0,415
448,0	0,415
448,5	0,414
449,0	0,414
449,5	0,414
450,0	0,413
450,5	0,413
451,0	0,412
451,5	0,412
452,0	0,412
452,5	0,412
453,0	0,412
453,5	0,412
454,0	0,412
454,5	0,412
455,0	0,411
455,5	0,411
456,0	0,411
456,5	0,410
457,0	0,410
457,5	0,410
458,0	0,410
458,5	0,410
459,0	0,410
459,5	0,410
460,0	0,410
460,5	0,410
461,0	0,410
461,5	0,409
462,0	0,409
462,5	0,409
463,0	0,409
463,5	0,409
464,0	0,409
464,5	0,409
465,0	0,410
465,5	0,410
466,0	0,410
466,5	0,410
467,0	0,410
467,5	0,410
468,0	0,409
468,5	0,409
469,0	0,410
469,5	0,410
470,0	0,410
470,5	0,411
471,0	0,411
471,5	0,412
472,0	0,412
472,5	0,412
473,0	0,412
473,5	0,413
474,0	0,413
474,5	0,413
475,0	0,414
475,5	0,414
476,0	0,414
476,5	0,415
477,0	0,416
477,5	0,416
478,0	0,417
478,5	0,418
479,0	0,418
479,5	0,418
480,0	0,419
480,5	0,420
481,0	0,421
481,5	0,423
482,0	0,424
482,5	0,425
483,0	0,426
483,5	0,427
484,0	0,428
484,5	0,429
485,0	0,430
485,5	0,431
486,0	0,432
486,5	0,434
487,0	0,436
487,5	0,437
488,0	0,439
488,5	0,441
489,0	0,443
489,5	0,446
490,0	0,448
490,5	0,450
491,0	0,452
491,5	0,454
492,0	0,457
492,5	0,459
493,0	0,460
493,5	0,462
494,0	0,464
494,5	0,467
495,0	0,470
495,5	0,473
496,0	0,476
496,5	0,479
497,0	0,482
497,5	0,485
498,0	0,488
498,5	0,491
499,0	0,494
499,5	0,498
500,0	0,501
500,5	0,504
501,0	0,506
501,5	0,509
502,0	0,512
502,5	0,515
503,0	0,518
503,5	0,521
504,0	0,525
504,5	0,528
505,0	0,531
505,5	0,534
506,0	0,537
506,5	0,539
507,0	0,542
507,5	0,544
508,0	0,545
508,5	0,547
509,0	0,549
509,5	0,551
510,0	0,553
510,5	0,555
511,0	0,556
511,5	0,558
512,0	0,559
512,5	0,560
513,0	0,560
513,5	0,560
514,0	0,560
514,5	0,561
515,0	0,561
515,5	0,561
516,0	0,562
516,5	0,562
517,0	0,563
517,5	0,563
518,0	0,562
518,5	0,561
519,0	0,560
519,5	0,558
520,0	0,556
520,5	0,554
521,0	0,552
521,5	0,550
522,0	0,549
522,5	0,548
523,0	0,546
523,5	0,544
524,0	0,541
524,5	0,539
525,0	0,536
525,5	0,534
526,0	0,531
526,5	0,529
527,0	0,526
527,5	0,524
528,0	0,521
528,5	0,518
529,0	0,516
529,5	0,513
530,0	0,511
530,5	0,510
531,0	0,508
531,5	0,505
532,0	0,502
532,5	0,499
533,0	0,496
533,5	0,493
534,0	0,490
534,5	0,487
535,0	0,484
535,5	0,482
536,0	0,480
536,5	0,478
537,0	0,475
537,5	0,473
538,0	0,470
538,5	0,467
539,0	0,465
539,5	0,462
540,0	0,460
540,5	0,457
541,0	0,455
541,5	0,453
542,0	0,451
542,5	0,449
543,0	0,448
543,5	0,447
544,0	0,445
544,5	0,444
545,0	0,443
545,5	0,441
546,0	0,439
546,5	0,437
547,0	0,435
547,5	0,434
548,0	0,432
548,5	0,431
549,0	0,431
549,5	0,430
550,0	0,429
550,5	0,429
551,0	0,428
551,5	0,427
552,0	0,426
552,5	0,426
553,0	0,425
553,5	0,425
554,0	0,424
554,5	0,423
555,0	0,422
555,5	0,421
556,0	0,420
556,5	0,419
557,0	0,419
557,5	0,419
558,0	0,419
558,5	0,420
559,0	0,420
559,5	0,421
560,0	0,421
560,5	0,421
561,0	0,421
561,5	0,421
562,0	0,421
562,5	0,422
563,0	0,423
563,5	0,424
564,0	0,425
564,5	0,426
565,0	0,427
565,5	0,427
566,0	0,427
566,5	0,428
567,0	0,428
567,5	0,429
568,0	0,430
568,5	0,431
569,0	0,432
569,5	0,433
570,0	0,435
570,5	0,436
571,0	0,437
571,5	0,439
572,0	0,440
572,5	0,441
573,0	0,443
573,5	0,445
574,0	0,447
574,5	0,449
575,0	0,450
575,5	0,453
576,0	0,454
576,5	0,456
577,0	0,458
577,5	0,461
578,0	0,463
578,5	0,465
579,0	0,468
579,5	0,469
580,0	0,472
580,5	0,474
581,0	0,475
581,5	0,477
582,0	0,479
582,5	0,481
583,0	0,483
583,5	0,485
584,0	0,487
584,5	0,490
585,0	0,493
585,5	0,496
586,0	0,499
586,5	0,502
587,0	0,505
587,5	0,509
588,0	0,512
588,5	0,516
589,0	0,519
589,5	0,521
590,0	0,523
590,5	0,526
591,0	0,530
591,5	0,533
592,0	0,536
592,5	0,539
593,0	0,543
593,5	0,547
594,0	0,551
594,5	0,554
595,0	0,557
595,5	0,561
596,0	0,564
596,5	0,568
597,0	0,571
597,5	0,574
598,0	0,578
598,5	0,582
599,0	0,586
599,5	0,589
600,0	0,594
600,5	0,598
601,0	0,601
601,5	0,605
602,0	0,609
602,5	0,614
603,0	0,618
603,5	0,623
604,0	0,627
604,5	0,631
605,0	0,636
605,5	0,640
606,0	0,644
606,5	0,648
607,0	0,652
607,5	0,656
608,0	0,661
608,5	0,666
609,0	0,671
609,5	0,676
610,0	0,681
610,5	0,687
611,0	0,691
611,5	0,694
612,0	0,698
612,5	0,701
613,0	0,706
613,5	0,711
614,0	0,716
614,5	0,721
615,0	0,726
615,5	0,731
616,0	0,736
616,5	0,739
617,0	0,744
617,5	0,749
618,0	0,754
618,5	0,758
619,0	0,764
619,5	0,769
620,0	0,773
620,5	0,777
621,0	0,780
621,5	0,783
622,0	0,787
622,5	0,792
623,0	0,796
623,5	0,802
624,0	0,807
624,5	0,812
625,0	0,817
625,5	0,821
626,0	0,826
626,5	0,829
627,0	0,833
627,5	0,836
628,0	0,839
628,5	0,843
629,0	0,847
629,5	0,850
630,0	0,855
630,5	0,860
631,0	0,866
631,5	0,869
632,0	0,872
632,5	0,877
633,0	0,881
633,5	0,886
634,0	0,891
634,5	0,893
635,0	0,898
635,5	0,901
636,0	0,903
636,5	0,905
637,0	0,907
637,5	0,909
638,0	0,912
638,5	0,913
639,0	0,914
639,5	0,916
640,0	0,921
640,5	0,926
641,0	0,928
641,5	0,930
642,0	0,934
642,5	0,937
643,0	0,938
643,5	0,939
644,0	0,940
644,5	0,941
645,0	0,941
645,5	0,943
646,0	0,942
646,5	0,944
647,0	0,945
647,5	0,946
648,0	0,945
648,5	0,945
649,0	0,946
649,5	0,946
650,0	0,946
650,5	0,949
651,0	0,950
651,5	0,951
652,0	0,950
652,5	0,950
653,0	0,948
653,5	0,948
654,0	0,949
654,5	0,949
655,0	0,950
655,5	0,950
656,0	0,948
656,5	0,947
657,0	0,945
657,5	0,944
658,0	0,942
658,5	0,941
659,0	0,938
659,5	0,937
660,0	0,936
660,5	0,935
661,0	0,934
661,5	0,932
662,0	0,930
662,5	0,928
663,0	0,926
663,5	0,922
664,0	0,919
664,5	0,918
665,0	0,917
665,5	0,914
666,0	0,911
666,5	0,908
667,0	0,906
667,5	0,903
668,0	0,899
668,5	0,895
669,0	0,893
669,5	0,890
670,0	0,888
670,5	0,884
671,0	0,881
671,5	0,878
672,0	0,876
672,5	0,872
673,0	0,868
673,5	0,865
674,0	0,863
674,5	0,859
675,0	0,854
675,5	0,849
676,0	0,843
676,5	0,838
677,0	0,833
677,5	0,829
678,0	0,825
678,5	0,819
679,0	0,815
679,5	0,811
680,0	0,805
680,5	0,799
681,0	0,795
681,5	0,790
682,0	0,787
682,5	0,783
683,0	0,778
683,5	0,774
684,0	0,771
684,5	0,767
685,0	0,762
685,5	0,755
686,0	0,749
686,5	0,744
687,0	0,740
687,5	0,735
688,0	0,731
688,5	0,729
689,0	0,725
689,5	0,720
690,0	0,716
690,5	0,710
691,0	0,705
691,5	0,700
692,0	0,694
692,5	0,690
693,0	0,686
693,5	0,681
694,0	0,677
694,5	0,672
695,0	0,668
695,5	0,663
696,0	0,658
696,5	0,651
697,0	0,646
697,5	0,642
698,0	0,637
698,5	0,632
699,0	0,628
699,5	0,624
700,0	0,621
700,5	0,618
701,0	0,614
701,5	0,610
702,0	0,606
702,5	0,601
703,0	0,595
703,5	0,589
704,0	0,584
704,5	0,581
705,0	0,576
705,5	0,574
706,0	0,571
706,5	0,568
707,0	0,565
707,5	0,561
708,0	0,556
708,5	0,552
709,0	0,548
709,5	0,543
710,0	0,537
710,5	0,534
711,0	0,531
711,5	0,528
712,0	0,524
712,5	0,521
713,0	0,518
713,5	0,515
714,0	0,513
714,5	0,510
715,0	0,506
715,5	0,503
716,0	0,499
716,5	0,496
717,0	0,492
717,5	0,488
718,0	0,484
718,5	0,481
719,0	0,479
719,5	0,477
720,0	0,475
720,5	0,472
721,0	0,470
721,5	0,467
722,0	0,464
722,5	0,460
723,0	0,456
723,5	0,452
724,0	0,449
724,5	0,445
725,0	0,443
725,5	0,441
726,0	0,439
726,5	0,438
727,0	0,437
727,5	0,436
728,0	0,434
728,5	0,431
729,0	0,429
729,5	0,426
730,0	0,423
730,5	0,420
731,0	0,416
731,5	0,413
732,0	0,410
732,5	0,409
733,0	0,407
733,5	0,405
734,0	0,404
734,5	0,402
735,0	0,401
735,5	0,399
736,0	0,398
736,5	0,397
737,0	0,394
737,5	0,391
738,0	0,387
738,5	0,385
739,0	0,382
739,5	0,380
740,0	0,377
740,5	0,376
741,0	0,376
741,5	0,376
742,0	0,375
742,5	0,374
743,0	0,373
743,5	0,371
744,0	0,370
744,5	0,369
745,0	0,368
745,5	0,366
746,0	0,364
746,5	0,362
747,0	0,360
747,5	0,358
748,0	0,356
748,5	0,353
749,0	0,353
749,5	0,352
750,0	0,352
750,5	0,351
751,0	0,351
751,5	0,349
752,0	0,346
752,5	0,344
753,0	0,342
753,5	0,339
754,0	0,337
754,5	0,336
755,0	0,336
755,5	0,338
756,0	0,338
756,5	0,338
757,0	0,336
757,5	0,337
758,0	0,337
758,5	0,335
759,0	0,333
759,5	0,333
760,0	0,332
760,5	0,333
761,0	0,332
761,5	0,330
762,0	0,328
762,5	0,326
763,0	0,324
763,5	0,321
764,0	0,320
764,5	0,319
765,0	0,318
765,5	0,319
766,0	0,319
766,5	0,317
767,0	0,318
767,5	0,317
768,0	0,315
768,5	0,314
769,0	0,313
769,5	0,309
770,0	0,307
770,5	0,305
771,0	0,304
771,5	0,302
772,0	0,302
772,5	0,303
773,0	0,303
773,5	0,304
774,0	0,304
774,5	0,302
775,0	0,301
775,5	0,300
776,0	0,299
776,5	0,297
777,0	0,296
777,5	0,297
778,0	0,296
778,5	0,295
779,0	0,294
779,5	0,292
780,0	0,290
780,5	0,289
781,0	0,287
781,5	0,285
782,0	0,284
782,5	0,285
783,0	0,285
783,5	0,285
784,0	0,286
784,5	0,286
785,0	0,286
785,5	0,285
786,0	0,284
786,5	0,283
787,0	0,281
787,5	0,279
788,0	0,278
788,5	0,277
789,0	0,276
789,5	0,274
790,0	0,273
790,5	0,272
791,0	0,272
791,5	0,271
792,0	0,269
792,5	0,268
793,0	0,267
793,5	0,267
794,0	0,266
794,5	0,266
795,0	0,266
795,5	0,266
796,0	0,266
796,5	0,265
797,0	0,264
797,5	0,264
798,0	0,264
798,5	0,264
799,0	0,263
799,5	0,262
800,0	0,259
800,5	0,257
801,0	0,254
801,5	0,250
802,0	0,247
802,5	0,247
803,0	0,248
803,5	0,249
804,0	0,251
804,5	0,252
805,0	0,253
805,5	0,253
806,0	0,253
806,5	0,253
807,0	0,254
807,5	0,255
808,0	0,255
808,5	0,254
809,0	0,252
809,5	0,249
810,0	0,246
810,5	0,244
811,0	0,243
811,5	0,242
812,0	0,241
812,5	0,241
813,0	0,240
813,5	0,239
814,0	0,239
814,5	0,240
815,0	0,242
815,5	0,243
816,0	0,242
816,5	0,240
817,0	0,238
817,5	0,235
818,0	0,231
818,5	0,229
819,0	0,228
819,5	0,227
820,0	0,227
820,5	0,224
821,0	0,223
821,5	0,222
822,0	0,223
822,5	0,225
823,0	0,225
823,5	0,227
824,0	0,228
824,5	0,229
825,0	0,228
825,5	0,224
826,0	0,221
826,5	0,220
827,0	0,221
827,5	0,221
828,0	0,221
828,5	0,221
829,0	0,222
829,5	0,223
830,0	0,223
830,5	0,221
831,0	0,220
831,5	0,219
832,0	0,218
832,5	0,217
833,0	0,215
833,5	0,213
834,0	0,212
834,5	0,213
835,0	0,214
835,5	0,214
836,0	0,216
836,5	0,218
837,0	0,218
837,5	0,218
838,0	0,216
838,5	0,214
839,0	0,212
839,5	0,210
840,0	0,208
840,5	0,207
841,0	0,208
841,5	0,209
842,0	0,209
842,5	0,209
843,0	0,209
843,5	0,210
844,0	0,210
844,5	0,209
845,0	0,209
845,5	0,208
846,0	0,206
846,5	0,205
847,0	0,205
847,5	0,205
848,0	0,207
848,5	0,208
849,0	0,207
849,5	0,205
850,0	0,202


AuNr_10Krpm
19/06/2019 14:59
Longitud de onda (nm)	10mm Absorbance
//WLCalib: Shift 	0,23667	
//WLCalib: 261S 	-0,08000	
//WLCalib: 362S 	-0,58000	
//WLCalib: 484S 	-0,83000	
//WLCalib: 529S 	-0,65000	
//WLCalib: 823S 	-0,29000	
//QSpecEnd: 
190,0	0,845
190,5	0,860
191,0	0,866
191,5	0,872
192,0	0,892
192,5	0,912
193,0	0,919
193,5	0,923
194,0	0,922
194,5	0,917
195,0	0,905
195,5	0,899
196,0	0,887
196,5	0,879
197,0	0,875
197,5	0,865
198,0	0,865
198,5	0,856
199,0	0,849
199,5	0,831
200,0	0,809
200,5	0,786
201,0	0,765
201,5	0,744
202,0	0,728
202,5	0,711
203,0	0,699
203,5	0,686
204,0	0,672
204,5	0,658
205,0	0,648
205,5	0,638
206,0	0,628
206,5	0,616
207,0	0,605
207,5	0,593
208,0	0,582
208,5	0,573
209,0	0,563
209,5	0,554
210,0	0,546
210,5	0,537
211,0	0,530
211,5	0,522
212,0	0,516
212,5	0,508
213,0	0,501
213,5	0,495
214,0	0,489
214,5	0,482
215,0	0,476
215,5	0,472
216,0	0,468
216,5	0,462
217,0	0,458
217,5	0,453
218,0	0,448
218,5	0,444
219,0	0,440
219,5	0,436
220,0	0,433
220,5	0,431
221,0	0,429
221,5	0,426
222,0	0,424
222,5	0,421
223,0	0,418
223,5	0,415
224,0	0,412
224,5	0,409
225,0	0,407
225,5	0,404
226,0	0,400
226,5	0,397
227,0	0,394
227,5	0,393
228,0	0,393
228,5	0,394
229,0	0,395
229,5	0,397
230,0	0,398
230,5	0,398
231,0	0,397
231,5	0,396
232,0	0,394
232,5	0,392
233,0	0,391
233,5	0,389
234,0	0,388
234,5	0,388
235,0	0,388
235,5	0,388
236,0	0,388
236,5	0,388
237,0	0,388
237,5	0,388
238,0	0,388
238,5	0,387
239,0	0,386
239,5	0,386
240,0	0,385
240,5	0,384
241,0	0,384
241,5	0,386
242,0	0,388
242,5	0,391
243,0	0,392
243,5	0,394
244,0	0,393
244,5	0,392
245,0	0,390
245,5	0,388
246,0	0,389
246,5	0,390
247,0	0,392
247,5	0,394
248,0	0,397
248,5	0,399
249,0	0,399
249,5	0,398
250,0	0,397
250,5	0,395
251,0	0,394
251,5	0,394
252,0	0,394
252,5	0,395
253,0	0,396
253,5	0,397
254,0	0,398
254,5	0,398
255,0	0,397
255,5	0,396
256,0	0,396
256,5	0,396
257,0	0,395
257,5	0,393
258,0	0,392
258,5	0,391
259,0	0,391
259,5	0,393
260,0	0,395
260,5	0,397
261,0	0,399
261,5	0,400
262,0	0,400
262,5	0,399
263,0	0,397
263,5	0,396
264,0	0,395
264,5	0,395
265,0	0,394
265,5	0,393
266,0	0,393
266,5	0,393
267,0	0,393
267,5	0,393
268,0	0,393
268,5	0,393
269,0	0,392
269,5	0,390
270,0	0,389
270,5	0,388
271,0	0,388
271,5	0,388
272,0	0,388
272,5	0,388
273,0	0,387
273,5	0,387
274,0	0,386
274,5	0,384
275,0	0,382
275,5	0,380
276,0	0,379
276,5	0,378
277,0	0,378
277,5	0,377
278,0	0,376
278,5	0,376
279,0	0,374
279,5	0,373
280,0	0,371
280,5	0,369
281,0	0,368
281,5	0,366
282,0	0,366
282,5	0,366
283,0	0,365
283,5	0,365
284,0	0,363
284,5	0,362
285,0	0,360
285,5	0,358
286,0	0,358
286,5	0,357
287,0	0,357
287,5	0,357
288,0	0,356
288,5	0,355
289,0	0,353
289,5	0,351
290,0	0,350
290,5	0,349
291,0	0,349
291,5	0,349
292,0	0,349
292,5	0,348
293,0	0,347
293,5	0,346
294,0	0,345
294,5	0,344
295,0	0,343
295,5	0,343
296,0	0,342
296,5	0,342
297,0	0,342
297,5	0,341
298,0	0,340
298,5	0,340
299,0	0,339
299,5	0,339
300,0	0,338
300,5	0,337
301,0	0,336
301,5	0,335
302,0	0,334
302,5	0,333
303,0	0,332
303,5	0,331
304,0	0,330
304,5	0,329
305,0	0,328
305,5	0,328
306,0	0,327
306,5	0,326
307,0	0,325
307,5	0,324
308,0	0,323
308,5	0,322
309,0	0,321
309,5	0,321
310,0	0,320
310,5	0,319
311,0	0,319
311,5	0,318
312,0	0,317
312,5	0,316
313,0	0,315
313,5	0,314
314,0	0,313
314,5	0,312
315,0	0,312
315,5	0,312
316,0	0,311
316,5	0,311
317,0	0,310
317,5	0,310
318,0	0,309
318,5	0,307
319,0	0,306
319,5	0,306
320,0	0,305
320,5	0,305
321,0	0,304
321,5	0,302
322,0	0,301
322,5	0,300
323,0	0,298
323,5	0,298
324,0	0,297
324,5	0,296
325,0	0,297
325,5	0,296
326,0	0,296
326,5	0,295
327,0	0,295
327,5	0,294
328,0	0,293
328,5	0,292
329,0	0,291
329,5	0,290
330,0	0,290
330,5	0,289
331,0	0,289
331,5	0,288
332,0	0,288
332,5	0,287
333,0	0,286
333,5	0,285
334,0	0,284
334,5	0,283
335,0	0,283
335,5	0,282
336,0	0,282
336,5	0,282
337,0	0,281
337,5	0,281
338,0	0,280
338,5	0,279
339,0	0,278
339,5	0,278
340,0	0,277
340,5	0,277
341,0	0,277
341,5	0,276
342,0	0,276
342,5	0,275
343,0	0,274
343,5	0,274
344,0	0,273
344,5	0,272
345,0	0,272
345,5	0,272
346,0	0,272
346,5	0,272
347,0	0,272
347,5	0,273
348,0	0,273
348,5	0,272
349,0	0,272
349,5	0,271
350,0	0,271
350,5	0,270
351,0	0,270
351,5	0,270
352,0	0,270
352,5	0,270
353,0	0,269
353,5	0,269
354,0	0,268
354,5	0,268
355,0	0,268
355,5	0,268
356,0	0,268
356,5	0,268
357,0	0,268
357,5	0,268
358,0	0,268
358,5	0,268
359,0	0,268
359,5	0,268
360,0	0,268
360,5	0,268
361,0	0,267
361,5	0,266
362,0	0,266
362,5	0,266
363,0	0,267
363,5	0,268
364,0	0,268
364,5	0,269
365,0	0,269
365,5	0,269
366,0	0,268
366,5	0,268
367,0	0,267
367,5	0,267
368,0	0,267
368,5	0,267
369,0	0,267
369,5	0,266
370,0	0,266
370,5	0,265
371,0	0,265
371,5	0,265
372,0	0,265
372,5	0,266
373,0	0,265
373,5	0,265
374,0	0,265
374,5	0,264
375,0	0,264
375,5	0,264
376,0	0,263
376,5	0,263
377,0	0,263
377,5	0,263
378,0	0,263
378,5	0,263
379,0	0,263
379,5	0,263
380,0	0,263
380,5	0,263
381,0	0,262
381,5	0,262
382,0	0,262
382,5	0,261
383,0	0,261
383,5	0,261
384,0	0,261
384,5	0,261
385,0	0,261
385,5	0,260
386,0	0,260
386,5	0,260
387,0	0,260
387,5	0,259
388,0	0,259
388,5	0,258
389,0	0,258
389,5	0,257
390,0	0,257
390,5	0,257
391,0	0,256
391,5	0,256
392,0	0,256
392,5	0,256
393,0	0,255
393,5	0,255
394,0	0,255
394,5	0,256
395,0	0,256
395,5	0,256
396,0	0,256
396,5	0,256
397,0	0,256
397,5	0,255
398,0	0,255
398,5	0,254
399,0	0,254
399,5	0,254
400,0	0,253
400,5	0,253
401,0	0,252
401,5	0,252
402,0	0,251
402,5	0,251
403,0	0,250
403,5	0,250
404,0	0,250
404,5	0,250
405,0	0,250
405,5	0,249
406,0	0,249
406,5	0,249
407,0	0,249
407,5	0,249
408,0	0,249
408,5	0,250
409,0	0,250
409,5	0,249
410,0	0,248
410,5	0,248
411,0	0,247
411,5	0,246
412,0	0,246
412,5	0,246
413,0	0,246
413,5	0,246
414,0	0,245
414,5	0,245
415,0	0,245
415,5	0,245
416,0	0,244
416,5	0,244
417,0	0,244
417,5	0,243
418,0	0,243
418,5	0,243
419,0	0,242
419,5	0,242
420,0	0,242
420,5	0,242
421,0	0,241
421,5	0,241
422,0	0,241
422,5	0,241
423,0	0,240
423,5	0,240
424,0	0,240
424,5	0,240
425,0	0,241
425,5	0,241
426,0	0,241
426,5	0,240
427,0	0,240
427,5	0,240
428,0	0,239
428,5	0,239
429,0	0,239
429,5	0,239
430,0	0,239
430,5	0,239
431,0	0,238
431,5	0,238
432,0	0,238
432,5	0,237
433,0	0,237
433,5	0,237
434,0	0,237
434,5	0,237
435,0	0,237
435,5	0,236
436,0	0,236
436,5	0,235
437,0	0,235
437,5	0,235
438,0	0,235
438,5	0,234
439,0	0,234
439,5	0,234
440,0	0,234
440,5	0,233
441,0	0,233
441,5	0,233
442,0	0,233
442,5	0,233
443,0	0,233
443,5	0,233
444,0	0,233
444,5	0,233
445,0	0,232
445,5	0,232
446,0	0,231
446,5	0,231
447,0	0,231
447,5	0,231
448,0	0,231
448,5	0,232
449,0	0,232
449,5	0,232
450,0	0,231
450,5	0,231
451,0	0,231
451,5	0,231
452,0	0,230
452,5	0,230
453,0	0,230
453,5	0,230
454,0	0,230
454,5	0,230
455,0	0,230
455,5	0,230
456,0	0,230
456,5	0,230
457,0	0,230
457,5	0,229
458,0	0,229
458,5	0,229
459,0	0,229
459,5	0,229
460,0	0,229
460,5	0,229
461,0	0,229
461,5	0,229
462,0	0,229
462,5	0,229
463,0	0,229
463,5	0,229
464,0	0,229
464,5	0,229
465,0	0,230
465,5	0,230
466,0	0,230
466,5	0,230
467,0	0,230
467,5	0,230
468,0	0,230
468,5	0,230
469,0	0,230
469,5	0,229
470,0	0,230
470,5	0,230
471,0	0,230
471,5	0,230
472,0	0,230
472,5	0,230
473,0	0,231
473,5	0,231
474,0	0,231
474,5	0,231
475,0	0,231
475,5	0,232
476,0	0,232
476,5	0,233
477,0	0,233
477,5	0,233
478,0	0,234
478,5	0,234
479,0	0,235
479,5	0,235
480,0	0,235
480,5	0,235
481,0	0,236
481,5	0,237
482,0	0,237
482,5	0,238
483,0	0,238
483,5	0,239
484,0	0,239
484,5	0,240
485,0	0,241
485,5	0,241
486,0	0,243
486,5	0,244
487,0	0,244
487,5	0,245
488,0	0,247
488,5	0,248
489,0	0,249
489,5	0,250
490,0	0,252
490,5	0,253
491,0	0,254
491,5	0,255
492,0	0,256
492,5	0,258
493,0	0,259
493,5	0,260
494,0	0,262
494,5	0,263
495,0	0,265
495,5	0,267
496,0	0,269
496,5	0,271
497,0	0,272
497,5	0,274
498,0	0,276
498,5	0,278
499,0	0,279
499,5	0,281
500,0	0,283
500,5	0,285
501,0	0,287
501,5	0,288
502,0	0,290
502,5	0,292
503,0	0,294
503,5	0,296
504,0	0,297
504,5	0,299
505,0	0,301
505,5	0,303
506,0	0,305
506,5	0,307
507,0	0,309
507,5	0,310
508,0	0,312
508,5	0,313
509,0	0,315
509,5	0,317
510,0	0,318
510,5	0,320
511,0	0,322
511,5	0,324
512,0	0,325
512,5	0,326
513,0	0,327
513,5	0,327
514,0	0,328
514,5	0,329
515,0	0,329
515,5	0,330
516,0	0,331
516,5	0,332
517,0	0,332
517,5	0,333
518,0	0,333
518,5	0,334
519,0	0,334
519,5	0,334
520,0	0,333
520,5	0,333
521,0	0,333
521,5	0,333
522,0	0,333
522,5	0,333
523,0	0,332
523,5	0,332
524,0	0,331
524,5	0,330
525,0	0,329
525,5	0,328
526,0	0,328
526,5	0,327
527,0	0,326
527,5	0,325
528,0	0,323
528,5	0,323
529,0	0,322
529,5	0,321
530,0	0,321
530,5	0,320
531,0	0,320
531,5	0,319
532,0	0,317
532,5	0,316
533,0	0,314
533,5	0,313
534,0	0,311
534,5	0,310
535,0	0,309
535,5	0,308
536,0	0,307
536,5	0,306
537,0	0,305
537,5	0,304
538,0	0,303
538,5	0,301
539,0	0,299
539,5	0,298
540,0	0,296
540,5	0,294
541,0	0,292
541,5	0,291
542,0	0,290
542,5	0,290
543,0	0,289
543,5	0,289
544,0	0,289
544,5	0,287
545,0	0,286
545,5	0,284
546,0	0,283
546,5	0,281
547,0	0,280
547,5	0,279
548,0	0,278
548,5	0,278
549,0	0,277
549,5	0,276
550,0	0,275
550,5	0,274
551,0	0,273
551,5	0,272
552,0	0,271
552,5	0,270
553,0	0,269
553,5	0,269
554,0	0,268
554,5	0,267
555,0	0,267
555,5	0,266
556,0	0,265
556,5	0,264
557,0	0,263
557,5	0,263
558,0	0,263
558,5	0,262
559,0	0,262
559,5	0,262
560,0	0,262
560,5	0,261
561,0	0,260
561,5	0,259
562,0	0,258
562,5	0,258
563,0	0,258
563,5	0,258
564,0	0,259
564,5	0,259
565,0	0,258
565,5	0,258
566,0	0,257
566,5	0,257
567,0	0,256
567,5	0,256
568,0	0,256
568,5	0,256
569,0	0,257
569,5	0,257
570,0	0,257
570,5	0,257
571,0	0,257
571,5	0,257
572,0	0,257
572,5	0,257
573,0	0,258
573,5	0,258
574,0	0,259
574,5	0,259
575,0	0,260
575,5	0,260
576,0	0,260
576,5	0,261
577,0	0,261
577,5	0,262
578,0	0,262
578,5	0,263
579,0	0,263
579,5	0,264
580,0	0,264
580,5	0,265
581,0	0,266
581,5	0,266
582,0	0,267
582,5	0,267
583,0	0,268
583,5	0,268
584,0	0,269
584,5	0,270
585,0	0,271
585,5	0,272
586,0	0,273
586,5	0,274
587,0	0,275
587,5	0,277
588,0	0,278
588,5	0,280
589,0	0,281
589,5	0,282
590,0	0,284
590,5	0,284
591,0	0,285
591,5	0,287
592,0	0,289
592,5	0,290
593,0	0,292
593,5	0,293
594,0	0,295
594,5	0,297
595,0	0,297
595,5	0,298
596,0	0,299
596,5	0,301
597,0	0,302
597,5	0,303
598,0	0,304
598,5	0,306
599,0	0,308
599,5	0,309
600,0	0,311
600,5	0,313
601,0	0,314
601,5	0,316
602,0	0,318
602,5	0,320
603,0	0,322
603,5	0,324
604,0	0,326
604,5	0,328
605,0	0,330
605,5	0,331
606,0	0,333
606,5	0,334
607,0	0,336
607,5	0,338
608,0	0,340
608,5	0,343
609,0	0,346
609,5	0,349
610,0	0,351
610,5	0,352
611,0	0,354
611,5	0,355
612,0	0,356
612,5	0,357
613,0	0,359
613,5	0,362
614,0	0,364
614,5	0,366
615,0	0,368
615,5	0,370
616,0	0,372
616,5	0,374
617,0	0,376
617,5	0,378
618,0	0,380
618,5	0,383
619,0	0,385
619,5	0,386
620,0	0,388
620,5	0,389
621,0	0,391
621,5	0,393
622,0	0,395
622,5	0,397
623,0	0,399
623,5	0,401
624,0	0,403
624,5	0,405
625,0	0,406
625,5	0,409
626,0	0,411
626,5	0,413
627,0	0,415
627,5	0,417
628,0	0,419
628,5	0,420
629,0	0,422
629,5	0,424
630,0	0,425
630,5	0,428
631,0	0,429
631,5	0,431
632,0	0,432
632,5	0,434
633,0	0,436
633,5	0,438
634,0	0,439
634,5	0,441
635,0	0,442
635,5	0,442
636,0	0,444
636,5	0,446
637,0	0,448
637,5	0,450
638,0	0,452
638,5	0,452
639,0	0,454
639,5	0,456
640,0	0,456
640,5	0,456
641,0	0,457
641,5	0,458
642,0	0,459
642,5	0,460
643,0	0,461
643,5	0,461
644,0	0,463
644,5	0,464
645,0	0,463
645,5	0,463
646,0	0,463
646,5	0,463
647,0	0,463
647,5	0,463
648,0	0,463
648,5	0,463
649,0	0,462
649,5	0,461
650,0	0,461
650,5	0,461
651,0	0,461
651,5	0,462
652,0	0,464
652,5	0,464
653,0	0,464
653,5	0,464
654,0	0,464
654,5	0,465
655,0	0,465
655,5	0,464
656,0	0,464
656,5	0,464
657,0	0,463
657,5	0,461
658,0	0,459
658,5	0,458
659,0	0,458
659,5	0,457
660,0	0,456
660,5	0,456
661,0	0,456
661,5	0,456
662,0	0,455
662,5	0,454
663,0	0,452
663,5	0,450
664,0	0,449
664,5	0,447
665,0	0,446
665,5	0,446
666,0	0,445
666,5	0,444
667,0	0,443
667,5	0,442
668,0	0,440
668,5	0,438
669,0	0,436
669,5	0,434
670,0	0,432
670,5	0,431
671,0	0,430
671,5	0,428
672,0	0,427
672,5	0,425
673,0	0,424
673,5	0,421
674,0	0,420
674,5	0,417
675,0	0,416
675,5	0,415
676,0	0,414
676,5	0,413
677,0	0,412
677,5	0,410
678,0	0,408
678,5	0,405
679,0	0,403
679,5	0,400
680,0	0,398
680,5	0,395
681,0	0,392
681,5	0,389
682,0	0,387
682,5	0,384
683,0	0,384
683,5	0,384
684,0	0,384
684,5	0,383
685,0	0,380
685,5	0,377
686,0	0,374
686,5	0,370
687,0	0,367
687,5	0,364
688,0	0,364
688,5	0,363
689,0	0,363
689,5	0,362
690,0	0,359
690,5	0,357
691,0	0,354
691,5	0,351
692,0	0,349
692,5	0,347
693,0	0,346
693,5	0,344
694,0	0,343
694,5	0,341
695,0	0,339
695,5	0,335
696,0	0,332
696,5	0,329
697,0	0,328
697,5	0,325
698,0	0,324
698,5	0,322
699,0	0,321
699,5	0,319
700,0	0,318
700,5	0,316
701,0	0,314
701,5	0,312
702,0	0,310
702,5	0,308
703,0	0,305
703,5	0,303
704,0	0,301
704,5	0,299
705,0	0,298
705,5	0,297
706,0	0,295
706,5	0,294
707,0	0,293
707,5	0,291
708,0	0,289
708,5	0,287
709,0	0,285
709,5	0,283
710,0	0,281
710,5	0,279
711,0	0,277
711,5	0,276
712,0	0,274
712,5	0,274
713,0	0,273
713,5	0,271
714,0	0,269
714,5	0,268
715,0	0,266
715,5	0,264
716,0	0,263
716,5	0,261
717,0	0,260
717,5	0,260
718,0	0,259
718,5	0,258
719,0	0,257
719,5	0,256
720,0	0,254
720,5	0,252
721,0	0,250
721,5	0,248
722,0	0,246
722,5	0,245
723,0	0,243
723,5	0,242
724,0	0,241
724,5	0,240
725,0	0,238
725,5	0,237
726,0	0,235
726,5	0,234
727,0	0,234
727,5	0,233
728,0	0,232
728,5	0,230
729,0	0,229
729,5	0,227
730,0	0,226
730,5	0,225
731,0	0,223
731,5	0,222
732,0	0,222
732,5	0,221
733,0	0,220
733,5	0,219
734,0	0,219
734,5	0,219
735,0	0,219
735,5	0,218
736,0	0,217
736,5	0,215
737,0	0,214
737,5	0,212
738,0	0,211
738,5	0,210
739,0	0,209
739,5	0,207
740,0	0,206
740,5	0,205
741,0	0,206
741,5	0,207
742,0	0,207
742,5	0,207
743,0	0,207
743,5	0,206
744,0	0,204
744,5	0,203
745,0	0,201
745,5	0,199
746,0	0,199
746,5	0,197
747,0	0,196
747,5	0,195
748,0	0,194
748,5	0,193
749,0	0,193
749,5	0,193
750,0	0,193
750,5	0,192
751,0	0,193
751,5	0,192
752,0	0,191
752,5	0,191
753,0	0,190
753,5	0,190
754,0	0,189
754,5	0,187
755,0	0,187
755,5	0,187
756,0	0,186
756,5	0,185
757,0	0,184
757,5	0,184
758,0	0,185
758,5	0,185
759,0	0,184
759,5	0,184
760,0	0,184
760,5	0,185
761,0	0,184
761,5	0,182
762,0	0,180
762,5	0,179
763,0	0,178
763,5	0,176
764,0	0,175
764,5	0,176
765,0	0,176
765,5	0,178
766,0	0,179
766,5	0,178
767,0	0,178
767,5	0,178
768,0	0,178
768,5	0,177
769,0	0,176
769,5	0,174
770,0	0,171
770,5	0,170
771,0	0,169
771,5	0,167
772,0	0,167
772,5	0,168
773,0	0,169
773,5	0,169
774,0	0,170
774,5	0,170
775,0	0,170
775,5	0,170
776,0	0,169
776,5	0,168
777,0	0,167
777,5	0,165
778,0	0,163
778,5	0,162
779,0	0,160
779,5	0,160
780,0	0,159
780,5	0,160
781,0	0,160
781,5	0,161
782,0	0,161
782,5	0,159
783,0	0,157
783,5	0,155
784,0	0,155
784,5	0,155
785,0	0,155
785,5	0,155
786,0	0,156
786,5	0,156
787,0	0,156
787,5	0,155
788,0	0,154
788,5	0,155
789,0	0,155
789,5	0,154
790,0	0,153
790,5	0,153
791,0	0,153
791,5	0,151
792,0	0,150
792,5	0,148
793,0	0,148
793,5	0,148
794,0	0,146
794,5	0,145
795,0	0,145
795,5	0,144
796,0	0,144
796,5	0,144
797,0	0,143
797,5	0,144
798,0	0,144
798,5	0,144
799,0	0,144
799,5	0,143
800,0	0,140
800,5	0,140
801,0	0,138
801,5	0,136
802,0	0,135
802,5	0,134
803,0	0,135
803,5	0,134
804,0	0,136
804,5	0,137
805,0	0,138
805,5	0,139
806,0	0,139
806,5	0,139
807,0	0,139
807,5	0,139
808,0	0,139
808,5	0,138
809,0	0,137
809,5	0,136
810,0	0,134
810,5	0,131
811,0	0,130
811,5	0,129
812,0	0,128
812,5	0,127
813,0	0,127
813,5	0,127
814,0	0,127
814,5	0,128
815,0	0,129
815,5	0,130
816,0	0,131
816,5	0,132
817,0	0,131
817,5	0,129
818,0	0,126
818,5	0,124
819,0	0,122
819,5	0,121
820,0	0,120
820,5	0,119
821,0	0,118
821,5	0,118
822,0	0,119
822,5	0,120
823,0	0,121
823,5	0,121
824,0	0,123
824,5	0,123
825,0	0,122
825,5	0,119
826,0	0,116
826,5	0,115
827,0	0,115
827,5	0,115
828,0	0,115
828,5	0,115
829,0	0,115
829,5	0,115
830,0	0,115
830,5	0,114
831,0	0,115
831,5	0,116
832,0	0,117
832,5	0,118
833,0	0,116
833,5	0,114
834,0	0,113
834,5	0,112
835,0	0,113
835,5	0,113
836,0	0,113
836,5	0,113
837,0	0,114
837,5	0,114
838,0	0,113
838,5	0,112
839,0	0,110
839,5	0,110
840,0	0,110
840,5	0,110
841,0	0,112
841,5	0,112
842,0	0,113
842,5	0,113
843,0	0,112
843,5	0,110
844,0	0,108
844,5	0,105
845,0	0,103
845,5	0,101
846,0	0,100
846,5	0,101
847,0	0,102
847,5	0,104
848,0	0,107
848,5	0,107
849,0	0,107
849,5	0,105
850,0	0,102

