11/11/2019 16:44
Longitud de onda (nm)	10mm Absorbance
//WLCalib: Shift 	0,23667	
//WLCalib: 261S 	-0,08000	
//WLCalib: 362S 	-0,58000	
//WLCalib: 484S 	-0,47000	
//WLCalib: 529S 	-0,65000	
//WLCalib: 823S 	-0,29000	
//QSpecEnd: 
190,0	1,612
190,5	1,665
191,0	1,709
191,5	1,753
192,0	1,785
192,5	1,797
193,0	1,808
193,5	1,819
194,0	1,833
194,5	1,852
195,0	1,874
195,5	1,898
196,0	1,922
196,5	1,950
197,0	1,951
197,5	1,952
198,0	1,941
198,5	1,929
199,0	1,917
199,5	1,910
200,0	1,910
200,5	1,917
201,0	1,931
201,5	1,952
202,0	1,978
202,5	2,007
203,0	2,027
203,5	2,052
204,0	2,076
204,5	2,096
205,0	2,113
205,5	2,126
206,0	2,136
206,5	2,144
207,0	2,149
207,5	2,153
208,0	2,156
208,5	2,158
209,0	2,159
209,5	2,158
210,0	2,155
210,5	2,151
211,0	2,148
211,5	2,146
212,0	2,143
212,5	2,139
213,0	2,132
213,5	2,140
214,0	2,136
214,5	2,111
215,0	2,095
215,5	2,089
216,0	2,092
216,5	2,106
217,0	2,129
217,5	2,159
218,0	2,203
218,5	2,251
219,0	2,263
219,5	2,275
220,0	2,300
220,5	2,329
221,0	2,359
221,5	2,393
222,0	2,426
222,5	2,474
223,0	2,527
223,5	2,538
224,0	2,521
224,5	2,479
225,0	2,408
225,5	2,309
226,0	2,191
226,5	2,067
227,0	1,951
227,5	1,866
228,0	1,791
228,5	1,718
229,0	1,658
229,5	1,608
230,0	1,563
230,5	1,522
231,0	1,483
231,5	1,449
232,0	1,415
232,5	1,385
233,0	1,357
233,5	1,331
234,0	1,310
234,5	1,287
235,0	1,267
235,5	1,250
236,0	1,234
236,5	1,221
237,0	1,205
237,5	1,192
238,0	1,179
238,5	1,167
239,0	1,155
239,5	1,140
240,0	1,128
240,5	1,117
241,0	1,105
241,5	1,094
242,0	1,080
242,5	1,067
243,0	1,051
243,5	1,034
244,0	1,014
244,5	0,991
245,0	0,966
245,5	0,940
246,0	0,914
246,5	0,888
247,0	0,862
247,5	0,838
248,0	0,813
248,5	0,789
249,0	0,765
249,5	0,739
250,0	0,713
250,5	0,688
251,0	0,664
251,5	0,641
252,0	0,622
252,5	0,603
253,0	0,587
253,5	0,573
254,0	0,559
254,5	0,545
255,0	0,532
255,5	0,520
256,0	0,509
256,5	0,499
257,0	0,490
257,5	0,482
258,0	0,474
258,5	0,467
259,0	0,461
259,5	0,454
260,0	0,448
260,5	0,443
261,0	0,439
261,5	0,434
262,0	0,429
262,5	0,425
263,0	0,420
263,5	0,416
264,0	0,412
264,5	0,408
265,0	0,404
265,5	0,400
266,0	0,396
266,5	0,392
267,0	0,388
267,5	0,384
268,0	0,380
268,5	0,376
269,0	0,373
269,5	0,370
270,0	0,367
270,5	0,363
271,0	0,360
271,5	0,357
272,0	0,354
272,5	0,351
273,0	0,349
273,5	0,347
274,0	0,345
274,5	0,342
275,0	0,339
275,5	0,336
276,0	0,333
276,5	0,330
277,0	0,326
277,5	0,324
278,0	0,321
278,5	0,319
279,0	0,316
279,5	0,314
280,0	0,311
280,5	0,308
281,0	0,306
281,5	0,303
282,0	0,301
282,5	0,300
283,0	0,298
283,5	0,296
284,0	0,295
284,5	0,293
285,0	0,291
285,5	0,288
286,0	0,286
286,5	0,284
287,0	0,282
287,5	0,280
288,0	0,279
288,5	0,277
289,0	0,276
289,5	0,274
290,0	0,273
290,5	0,271
291,0	0,270
291,5	0,268
292,0	0,267
292,5	0,265
293,0	0,264
293,5	0,263
294,0	0,262
294,5	0,261
295,0	0,260
295,5	0,259
296,0	0,258
296,5	0,257
297,0	0,256
297,5	0,254
298,0	0,253
298,5	0,253
299,0	0,252
299,5	0,251
300,0	0,249
300,5	0,249
301,0	0,248
301,5	0,247
302,0	0,246
302,5	0,245
303,0	0,244
303,5	0,244
304,0	0,243
304,5	0,242
305,0	0,241
305,5	0,240
306,0	0,239
306,5	0,238
307,0	0,238
307,5	0,237
308,0	0,237
308,5	0,236
309,0	0,235
309,5	0,234
310,0	0,233
310,5	0,232
311,0	0,231
311,5	0,231
312,0	0,230
312,5	0,229
313,0	0,229
313,5	0,228
314,0	0,227
314,5	0,226
315,0	0,225
315,5	0,224
316,0	0,224
316,5	0,223
317,0	0,222
317,5	0,222
318,0	0,221
318,5	0,221
319,0	0,220
319,5	0,220
320,0	0,219
320,5	0,219
321,0	0,218
321,5	0,217
322,0	0,216
322,5	0,215
323,0	0,214
323,5	0,214
324,0	0,213
324,5	0,213
325,0	0,212
325,5	0,212
326,0	0,211
326,5	0,211
327,0	0,210
327,5	0,210
328,0	0,209
328,5	0,208
329,0	0,207
329,5	0,207
330,0	0,206
330,5	0,206
331,0	0,205
331,5	0,205
332,0	0,204
332,5	0,203
333,0	0,203
333,5	0,202
334,0	0,202
334,5	0,201
335,0	0,201
335,5	0,200
336,0	0,200
336,5	0,199
337,0	0,199
337,5	0,198
338,0	0,198
338,5	0,198
339,0	0,197
339,5	0,196
340,0	0,196
340,5	0,196
341,0	0,196
341,5	0,195
342,0	0,195
342,5	0,195
343,0	0,195
343,5	0,194
344,0	0,194
344,5	0,193
345,0	0,193
345,5	0,193
346,0	0,193
346,5	0,193
347,0	0,192
347,5	0,192
348,0	0,192
348,5	0,191
349,0	0,191
349,5	0,191
350,0	0,191
350,5	0,190
351,0	0,190
351,5	0,191
352,0	0,190
352,5	0,190
353,0	0,190
353,5	0,190
354,0	0,190
354,5	0,190
355,0	0,190
355,5	0,190
356,0	0,190
356,5	0,190
357,0	0,190
357,5	0,189
358,0	0,189
358,5	0,189
359,0	0,189
359,5	0,189
360,0	0,189
360,5	0,188
361,0	0,188
361,5	0,188
362,0	0,187
362,5	0,187
363,0	0,187
363,5	0,187
364,0	0,187
364,5	0,187
365,0	0,187
365,5	0,187
366,0	0,188
366,5	0,188
367,0	0,188
367,5	0,187
368,0	0,187
368,5	0,187
369,0	0,186
369,5	0,186
370,0	0,185
370,5	0,186
371,0	0,186
371,5	0,186
372,0	0,185
372,5	0,185
373,0	0,185
373,5	0,185
374,0	0,184
374,5	0,184
375,0	0,184
375,5	0,184
376,0	0,184
376,5	0,183
377,0	0,183
377,5	0,183
378,0	0,183
378,5	0,183
379,0	0,182
379,5	0,182
380,0	0,182
380,5	0,182
381,0	0,181
381,5	0,181
382,0	0,181
382,5	0,181
383,0	0,181
383,5	0,180
384,0	0,180
384,5	0,180
385,0	0,179
385,5	0,179
386,0	0,179
386,5	0,179
387,0	0,179
387,5	0,179
388,0	0,178
388,5	0,178
389,0	0,178
389,5	0,178
390,0	0,178
390,5	0,178
391,0	0,178
391,5	0,178
392,0	0,178
392,5	0,177
393,0	0,177
393,5	0,176
394,0	0,176
394,5	0,176
395,0	0,176
395,5	0,175
396,0	0,175
396,5	0,175
397,0	0,175
397,5	0,175
398,0	0,175
398,5	0,174
399,0	0,175
399,5	0,175
400,0	0,174
400,5	0,174
401,0	0,174
401,5	0,173
402,0	0,173
402,5	0,173
403,0	0,173
403,5	0,172
404,0	0,172
404,5	0,172
405,0	0,172
405,5	0,171
406,0	0,171
406,5	0,171
407,0	0,171
407,5	0,171
408,0	0,171
408,5	0,170
409,0	0,170
409,5	0,170
410,0	0,170
410,5	0,170
411,0	0,169
411,5	0,169
412,0	0,169
412,5	0,169
413,0	0,169
413,5	0,169
414,0	0,168
414,5	0,168
415,0	0,168
415,5	0,168
416,0	0,169
416,5	0,168
417,0	0,168
417,5	0,168
418,0	0,168
418,5	0,167
419,0	0,167
419,5	0,167
420,0	0,167
420,5	0,167
421,0	0,167
421,5	0,166
422,0	0,166
422,5	0,166
423,0	0,165
423,5	0,165
424,0	0,165
424,5	0,165
425,0	0,165
425,5	0,165
426,0	0,165
426,5	0,165
427,0	0,165
427,5	0,164
428,0	0,164
428,5	0,164
429,0	0,164
429,5	0,163
430,0	0,163
430,5	0,163
431,0	0,163
431,5	0,163
432,0	0,163
432,5	0,163
433,0	0,163
433,5	0,163
434,0	0,162
434,5	0,162
435,0	0,162
435,5	0,162
436,0	0,162
436,5	0,162
437,0	0,162
437,5	0,162
438,0	0,162
438,5	0,162
439,0	0,161
439,5	0,161
440,0	0,160
440,5	0,160
441,0	0,160
441,5	0,160
442,0	0,160
442,5	0,160
443,0	0,160
443,5	0,160
444,0	0,159
444,5	0,159
445,0	0,159
445,5	0,159
446,0	0,159
446,5	0,159
447,0	0,159
447,5	0,159
448,0	0,159
448,5	0,159
449,0	0,159
449,5	0,159
450,0	0,159
450,5	0,159
451,0	0,159
451,5	0,158
452,0	0,158
452,5	0,158
453,0	0,158
453,5	0,158
454,0	0,158
454,5	0,158
455,0	0,158
455,5	0,158
456,0	0,158
456,5	0,158
457,0	0,158
457,5	0,158
458,0	0,158
458,5	0,158
459,0	0,158
459,5	0,158
460,0	0,158
460,5	0,158
461,0	0,158
461,5	0,157
462,0	0,157
462,5	0,157
463,0	0,157
463,5	0,157
464,0	0,157
464,5	0,157
465,0	0,157
465,5	0,157
466,0	0,157
466,5	0,157
467,0	0,158
467,5	0,158
468,0	0,158
468,5	0,158
469,0	0,158
469,5	0,158
470,0	0,158
470,5	0,158
471,0	0,158
471,5	0,158
472,0	0,159
472,5	0,159
473,0	0,159
473,5	0,160
474,0	0,160
474,5	0,160
475,0	0,161
475,5	0,161
476,0	0,161
476,5	0,161
477,0	0,161
477,5	0,161
478,0	0,161
478,5	0,161
479,0	0,161
479,5	0,161
480,0	0,161
480,5	0,162
481,0	0,163
481,5	0,164
482,0	0,164
482,5	0,164
483,0	0,164
483,5	0,165
484,0	0,165
484,5	0,165
485,0	0,166
485,5	0,167
486,0	0,168
486,5	0,168
487,0	0,168
487,5	0,169
488,0	0,169
488,5	0,170
489,0	0,171
489,5	0,172
490,0	0,172
490,5	0,173
491,0	0,173
491,5	0,174
492,0	0,175
492,5	0,175
493,0	0,176
493,5	0,176
494,0	0,177
494,5	0,178
495,0	0,180
495,5	0,181
496,0	0,182
496,5	0,183
497,0	0,184
497,5	0,184
498,0	0,185
498,5	0,185
499,0	0,186
499,5	0,187
500,0	0,188
500,5	0,189
501,0	0,191
501,5	0,191
502,0	0,192
502,5	0,193
503,0	0,194
503,5	0,195
504,0	0,196
504,5	0,197
505,0	0,198
505,5	0,199
506,0	0,200
506,5	0,200
507,0	0,201
507,5	0,201
508,0	0,202
508,5	0,203
509,0	0,204
509,5	0,205
510,0	0,206
510,5	0,207
511,0	0,208
511,5	0,208
512,0	0,208
512,5	0,208
513,0	0,208
513,5	0,209
514,0	0,209
514,5	0,209
515,0	0,209
515,5	0,209
516,0	0,209
516,5	0,209
517,0	0,209
517,5	0,210
518,0	0,210
518,5	0,210
519,0	0,210
519,5	0,210
520,0	0,210
520,5	0,210
521,0	0,210
521,5	0,209
522,0	0,209
522,5	0,208
523,0	0,207
523,5	0,206
524,0	0,206
524,5	0,206
525,0	0,206
525,5	0,206
526,0	0,206
526,5	0,205
527,0	0,204
527,5	0,203
528,0	0,203
528,5	0,202
529,0	0,201
529,5	0,201
530,0	0,200
530,5	0,200
531,0	0,199
531,5	0,198
532,0	0,198
532,5	0,197
533,0	0,197
533,5	0,196
534,0	0,196
534,5	0,195
535,0	0,194
535,5	0,193
536,0	0,192
536,5	0,192
537,0	0,191
537,5	0,191
538,0	0,190
538,5	0,189
539,0	0,188
539,5	0,187
540,0	0,186
540,5	0,185
541,0	0,185
541,5	0,184
542,0	0,183
542,5	0,183
543,0	0,182
543,5	0,181
544,0	0,180
544,5	0,179
545,0	0,178
545,5	0,178
546,0	0,177
546,5	0,177
547,0	0,176
547,5	0,175
548,0	0,174
548,5	0,174
549,0	0,173
549,5	0,173
550,0	0,173
550,5	0,173
551,0	0,173
551,5	0,172
552,0	0,171
552,5	0,170
553,0	0,169
553,5	0,169
554,0	0,169
554,5	0,169
555,0	0,169
555,5	0,168
556,0	0,167
556,5	0,167
557,0	0,166
557,5	0,165
558,0	0,165
558,5	0,165
559,0	0,165
559,5	0,165
560,0	0,166
560,5	0,165
561,0	0,165
561,5	0,164
562,0	0,163
562,5	0,162
563,0	0,161
563,5	0,160
564,0	0,160
564,5	0,160
565,0	0,160
565,5	0,161
566,0	0,161
566,5	0,161
567,0	0,161
567,5	0,162
568,0	0,161
568,5	0,161
569,0	0,160
569,5	0,160
570,0	0,160
570,5	0,160
571,0	0,160
571,5	0,161
572,0	0,160
572,5	0,160
573,0	0,159
573,5	0,158
574,0	0,159
574,5	0,159
575,0	0,159
575,5	0,159
576,0	0,159
576,5	0,159
577,0	0,158
577,5	0,158
578,0	0,158
578,5	0,158
579,0	0,159
579,5	0,159
580,0	0,160
580,5	0,160
581,0	0,161
581,5	0,161
582,0	0,162
582,5	0,162
583,0	0,162
583,5	0,162
584,0	0,162
584,5	0,162
585,0	0,163
585,5	0,164
586,0	0,164
586,5	0,164
587,0	0,165
587,5	0,165
588,0	0,165
588,5	0,165
589,0	0,165
589,5	0,166
590,0	0,166
590,5	0,166
591,0	0,167
591,5	0,167
592,0	0,167
592,5	0,168
593,0	0,169
593,5	0,170
594,0	0,171
594,5	0,172
595,0	0,172
595,5	0,173
596,0	0,173
596,5	0,174
597,0	0,174
597,5	0,174
598,0	0,175
598,5	0,175
599,0	0,177
599,5	0,178
600,0	0,179
600,5	0,181
601,0	0,181
601,5	0,182
602,0	0,182
602,5	0,182
603,0	0,182
603,5	0,182
604,0	0,184
604,5	0,184
605,0	0,185
605,5	0,186
606,0	0,187
606,5	0,188
607,0	0,188
607,5	0,189
608,0	0,189
608,5	0,189
609,0	0,190
609,5	0,190
610,0	0,192
610,5	0,193
611,0	0,195
611,5	0,196
612,0	0,198
612,5	0,199
613,0	0,200
613,5	0,200
614,0	0,201
614,5	0,201
615,0	0,202
615,5	0,204
616,0	0,205
616,5	0,206
617,0	0,208
617,5	0,209
618,0	0,211
618,5	0,211
619,0	0,212
619,5	0,213
620,0	0,214
620,5	0,214
621,0	0,214
621,5	0,215
622,0	0,215
622,5	0,216
623,0	0,217
623,5	0,218
624,0	0,221
624,5	0,223
625,0	0,225
625,5	0,227
626,0	0,228
626,5	0,229
627,0	0,229
627,5	0,229
628,0	0,229
628,5	0,230
629,0	0,231
629,5	0,232
630,0	0,234
630,5	0,235
631,0	0,236
631,5	0,237
632,0	0,239
632,5	0,241
633,0	0,243
633,5	0,244
634,0	0,245
634,5	0,247
635,0	0,248
635,5	0,249
636,0	0,249
636,5	0,250
637,0	0,251
637,5	0,251
638,0	0,253
638,5	0,253
639,0	0,254
639,5	0,256
640,0	0,258
640,5	0,259
641,0	0,261
641,5	0,263
642,0	0,265
642,5	0,266
643,0	0,267
643,5	0,269
644,0	0,270
644,5	0,272
645,0	0,274
645,5	0,275
646,0	0,276
646,5	0,277
647,0	0,279
647,5	0,279
648,0	0,280
648,5	0,280
649,0	0,281
649,5	0,283
650,0	0,283
650,5	0,285
651,0	0,286
651,5	0,287
652,0	0,289
652,5	0,291
653,0	0,293
653,5	0,295
654,0	0,296
654,5	0,298
655,0	0,299
655,5	0,301
656,0	0,302
656,5	0,304
657,0	0,305
657,5	0,307
658,0	0,309
658,5	0,311
659,0	0,311
659,5	0,311
660,0	0,312
660,5	0,313
661,0	0,313
661,5	0,314
662,0	0,314
662,5	0,315
663,0	0,316
663,5	0,317
664,0	0,317
664,5	0,318
665,0	0,320
665,5	0,323
666,0	0,325
666,5	0,326
667,0	0,327
667,5	0,327
668,0	0,327
668,5	0,327
669,0	0,328
669,5	0,329
670,0	0,331
670,5	0,333
671,0	0,334
671,5	0,334
672,0	0,335
672,5	0,335
673,0	0,335
673,5	0,335
674,0	0,336
674,5	0,337
675,0	0,337
675,5	0,336
676,0	0,336
676,5	0,337
677,0	0,338
677,5	0,339
678,0	0,340
678,5	0,341
679,0	0,343
679,5	0,344
680,0	0,345
680,5	0,344
681,0	0,345
681,5	0,345
682,0	0,346
682,5	0,346
683,0	0,346
683,5	0,346
684,0	0,347
684,5	0,348
685,0	0,348
685,5	0,348
686,0	0,348
686,5	0,349
687,0	0,348
687,5	0,348
688,0	0,348
688,5	0,347
689,0	0,347
689,5	0,346
690,0	0,345
690,5	0,345
691,0	0,345
691,5	0,345
692,0	0,345
692,5	0,344
693,0	0,345
693,5	0,344
694,0	0,343
694,5	0,343
695,0	0,342
695,5	0,342
696,0	0,341
696,5	0,342
697,0	0,341
697,5	0,340
698,0	0,340
698,5	0,339
699,0	0,339
699,5	0,339
700,0	0,338
700,5	0,337
701,0	0,337
701,5	0,337
702,0	0,336
702,5	0,334
703,0	0,333
703,5	0,332
704,0	0,332
704,5	0,332
705,0	0,331
705,5	0,330
706,0	0,330
706,5	0,330
707,0	0,329
707,5	0,327
708,0	0,327
708,5	0,325
709,0	0,324
709,5	0,323
710,0	0,322
710,5	0,321
711,0	0,320
711,5	0,319
712,0	0,318
712,5	0,317
713,0	0,316
713,5	0,314
714,0	0,313
714,5	0,312
715,0	0,311
715,5	0,311
716,0	0,309
716,5	0,308
717,0	0,307
717,5	0,305
718,0	0,303
718,5	0,300
719,0	0,299
719,5	0,299
720,0	0,300
720,5	0,300
721,0	0,300
721,5	0,300
722,0	0,299
722,5	0,299
723,0	0,297
723,5	0,295
724,0	0,293
724,5	0,292
725,0	0,290
725,5	0,288
726,0	0,287
726,5	0,285
727,0	0,284
727,5	0,283
728,0	0,282
728,5	0,280
729,0	0,279
729,5	0,278
730,0	0,277
730,5	0,276
731,0	0,275
731,5	0,274
732,0	0,273
732,5	0,271
733,0	0,270
733,5	0,269
734,0	0,267
734,5	0,267
735,0	0,265
735,5	0,264
736,0	0,264
736,5	0,263
737,0	0,263
737,5	0,261
738,0	0,260
738,5	0,258
739,0	0,255
739,5	0,253
740,0	0,251
740,5	0,250
741,0	0,250
741,5	0,251
742,0	0,251
742,5	0,250
743,0	0,249
743,5	0,248
744,0	0,247
744,5	0,246
745,0	0,243
745,5	0,241
746,0	0,239
746,5	0,237
747,0	0,234
747,5	0,232
748,0	0,230
748,5	0,229
749,0	0,229
749,5	0,228
750,0	0,227
750,5	0,227
751,0	0,225
751,5	0,224
752,0	0,222
752,5	0,221
753,0	0,220
753,5	0,219
754,0	0,218
754,5	0,216
755,0	0,215
755,5	0,215
756,0	0,214
756,5	0,214
757,0	0,212
757,5	0,212
758,0	0,211
758,5	0,209
759,0	0,207
759,5	0,206
760,0	0,205
760,5	0,204
761,0	0,203
761,5	0,201
762,0	0,200
762,5	0,197
763,0	0,195
763,5	0,193
764,0	0,192
764,5	0,192
765,0	0,192
765,5	0,191
766,0	0,190
766,5	0,189
767,0	0,189
767,5	0,187
768,0	0,185
768,5	0,184
769,0	0,183
769,5	0,183
770,0	0,183
770,5	0,182
771,0	0,182
771,5	0,182
772,0	0,180
772,5	0,177
773,0	0,175
773,5	0,175
774,0	0,173
774,5	0,172
775,0	0,170
775,5	0,169
776,0	0,168
776,5	0,166
777,0	0,164
777,5	0,163
778,0	0,164
778,5	0,165
779,0	0,165
779,5	0,163
780,0	0,160
780,5	0,159
781,0	0,156
781,5	0,154
782,0	0,153
782,5	0,152
783,0	0,151
783,5	0,152
784,0	0,153
784,5	0,152
785,0	0,151
785,5	0,151
786,0	0,151
786,5	0,150
787,0	0,149
787,5	0,147
788,0	0,146
788,5	0,145
789,0	0,145
789,5	0,143
790,0	0,140
790,5	0,138
791,0	0,136
791,5	0,135
792,0	0,134
792,5	0,133
793,0	0,134
793,5	0,134
794,0	0,134
794,5	0,134
795,0	0,133
795,5	0,131
796,0	0,131
796,5	0,131
797,0	0,129
797,5	0,127
798,0	0,126
798,5	0,123
799,0	0,121
799,5	0,120
800,0	0,119
800,5	0,118
801,0	0,119
801,5	0,118
802,0	0,120
802,5	0,120
803,0	0,119
803,5	0,118
804,0	0,117
804,5	0,115
805,0	0,113
805,5	0,112
806,0	0,111
806,5	0,111
807,0	0,112
807,5	0,112
808,0	0,113
808,5	0,112
809,0	0,112
809,5	0,109
810,0	0,109
810,5	0,108
811,0	0,106
811,5	0,104
812,0	0,102
812,5	0,101
813,0	0,099
813,5	0,098
814,0	0,097
814,5	0,095
815,0	0,095
815,5	0,095
816,0	0,096
816,5	0,096
817,0	0,096
817,5	0,097
818,0	0,097
818,5	0,096
819,0	0,094
819,5	0,092
820,0	0,090
820,5	0,088
821,0	0,087
821,5	0,086
822,0	0,086
822,5	0,088
823,0	0,088
823,5	0,088
824,0	0,088
824,5	0,088
825,0	0,087
825,5	0,086
826,0	0,086
826,5	0,086
827,0	0,086
827,5	0,085
828,0	0,086
828,5	0,085
829,0	0,083
829,5	0,082
830,0	0,081
830,5	0,080
831,0	0,079
831,5	0,078
832,0	0,078
832,5	0,078
833,0	0,077
833,5	0,075
834,0	0,075
834,5	0,075
835,0	0,075
835,5	0,076
836,0	0,075
836,5	0,073
837,0	0,072
837,5	0,070
838,0	0,068
838,5	0,067
839,0	0,066
839,5	0,066
840,0	0,067
840,5	0,069
841,0	0,070
841,5	0,071
842,0	0,071
842,5	0,072
843,0	0,069
843,5	0,067
844,0	0,063
844,5	0,061
845,0	0,060
845,5	0,059
846,0	0,060
846,5	0,059
847,0	0,059
847,5	0,061
848,0	0,061
848,5	0,061
849,0	0,061
849,5	0,061
850,0	0,060


111119\s2
11/11/2019 16:53
Longitud de onda (nm)	10mm Absorbance
//WLCalib: Shift 	0,23667	
//WLCalib: 261S 	-0,08000	
//WLCalib: 362S 	-0,58000	
//WLCalib: 484S 	-0,47000	
//WLCalib: 529S 	-0,65000	
//WLCalib: 823S 	-0,29000	
//QSpecEnd: 
190,0	1,612
190,5	1,665
191,0	1,709
191,5	1,747
192,0	1,779
192,5	1,805
193,0	1,827
193,5	1,844
194,0	1,863
194,5	1,881
195,0	1,900
195,5	1,917
196,0	1,931
196,5	1,942
197,0	1,948
197,5	1,948
198,0	1,942
198,5	1,933
199,0	1,925
199,5	1,919
200,0	1,920
200,5	1,926
201,0	1,938
201,5	1,957
202,0	1,978
202,5	2,002
203,0	2,027
203,5	2,052
204,0	2,076
204,5	2,096
205,0	2,113
205,5	2,126
206,0	2,136
206,5	2,144
207,0	2,149
207,5	2,153
208,0	2,156
208,5	2,158
209,0	2,159
209,5	2,158
210,0	2,155
210,5	2,151
211,0	2,148
211,5	2,146
212,0	2,143
212,5	2,139
213,0	2,134
213,5	2,129
214,0	2,126
214,5	2,124
215,0	2,125
215,5	2,130
216,0	2,139
216,5	2,153
217,0	2,170
217,5	2,190
218,0	2,211
218,5	2,236
219,0	2,263
219,5	2,293
220,0	2,324
220,5	2,355
221,0	2,386
221,5	2,416
222,0	2,444
222,5	2,478
223,0	2,508
223,5	2,529
224,0	2,540
224,5	2,520
225,0	2,461
225,5	2,364
226,0	2,238
226,5	2,100
227,0	1,964
227,5	1,848
228,0	1,751
228,5	1,679
229,0	1,632
229,5	1,585
230,0	1,541
230,5	1,499
231,0	1,460
231,5	1,422
232,0	1,388
232,5	1,359
233,0	1,330
233,5	1,305
234,0	1,283
234,5	1,262
235,0	1,244
235,5	1,228
236,0	1,212
236,5	1,194
237,0	1,180
237,5	1,165
238,0	1,151
238,5	1,139
239,0	1,125
239,5	1,113
240,0	1,102
240,5	1,090
241,0	1,077
241,5	1,065
242,0	1,053
242,5	1,039
243,0	1,024
243,5	1,006
244,0	0,985
244,5	0,961
245,0	0,934
245,5	0,906
246,0	0,879
246,5	0,852
247,0	0,827
247,5	0,803
248,0	0,779
248,5	0,755
249,0	0,729
249,5	0,703
250,0	0,676
250,5	0,649
251,0	0,625
251,5	0,602
252,0	0,582
252,5	0,564
253,0	0,548
253,5	0,533
254,0	0,519
254,5	0,506
255,0	0,492
255,5	0,479
256,0	0,468
256,5	0,458
257,0	0,449
257,5	0,440
258,0	0,432
258,5	0,425
259,0	0,419
259,5	0,413
260,0	0,408
260,5	0,403
261,0	0,399
261,5	0,394
262,0	0,390
262,5	0,385
263,0	0,380
263,5	0,376
264,0	0,372
264,5	0,368
265,0	0,364
265,5	0,360
266,0	0,356
266,5	0,352
267,0	0,348
267,5	0,344
268,0	0,340
268,5	0,337
269,0	0,333
269,5	0,330
270,0	0,326
270,5	0,323
271,0	0,319
271,5	0,317
272,0	0,314
272,5	0,312
273,0	0,310
273,5	0,309
274,0	0,306
274,5	0,303
275,0	0,300
275,5	0,297
276,0	0,294
276,5	0,291
277,0	0,288
277,5	0,285
278,0	0,283
278,5	0,280
279,0	0,278
279,5	0,275
280,0	0,272
280,5	0,270
281,0	0,267
281,5	0,265
282,0	0,262
282,5	0,260
283,0	0,258
283,5	0,257
284,0	0,255
284,5	0,253
285,0	0,250
285,5	0,248
286,0	0,246
286,5	0,244
287,0	0,242
287,5	0,241
288,0	0,239
288,5	0,238
289,0	0,236
289,5	0,234
290,0	0,233
290,5	0,231
291,0	0,230
291,5	0,229
292,0	0,228
292,5	0,226
293,0	0,225
293,5	0,223
294,0	0,222
294,5	0,221
295,0	0,220
295,5	0,220
296,0	0,219
296,5	0,218
297,0	0,217
297,5	0,216
298,0	0,215
298,5	0,214
299,0	0,214
299,5	0,213
300,0	0,211
300,5	0,210
301,0	0,209
301,5	0,208
302,0	0,208
302,5	0,207
303,0	0,206
303,5	0,205
304,0	0,205
304,5	0,204
305,0	0,203
305,5	0,202
306,0	0,202
306,5	0,201
307,0	0,201
307,5	0,200
308,0	0,200
308,5	0,199
309,0	0,199
309,5	0,198
310,0	0,197
310,5	0,196
311,0	0,195
311,5	0,194
312,0	0,194
312,5	0,193
313,0	0,192
313,5	0,192
314,0	0,191
314,5	0,191
315,0	0,190
315,5	0,190
316,0	0,189
316,5	0,189
317,0	0,188
317,5	0,188
318,0	0,187
318,5	0,186
319,0	0,185
319,5	0,185
320,0	0,184
320,5	0,184
321,0	0,184
321,5	0,183
322,0	0,183
322,5	0,182
323,0	0,181
323,5	0,180
324,0	0,179
324,5	0,179
325,0	0,179
325,5	0,179
326,0	0,179
326,5	0,179
327,0	0,178
327,5	0,177
328,0	0,177
328,5	0,176
329,0	0,175
329,5	0,175
330,0	0,174
330,5	0,174
331,0	0,173
331,5	0,173
332,0	0,173
332,5	0,172
333,0	0,172
333,5	0,171
334,0	0,171
334,5	0,170
335,0	0,170
335,5	0,170
336,0	0,170
336,5	0,169
337,0	0,169
337,5	0,169
338,0	0,168
338,5	0,167
339,0	0,167
339,5	0,167
340,0	0,167
340,5	0,167
341,0	0,166
341,5	0,166
342,0	0,165
342,5	0,165
343,0	0,164
343,5	0,164
344,0	0,164
344,5	0,164
345,0	0,163
345,5	0,163
346,0	0,163
346,5	0,163
347,0	0,163
347,5	0,163
348,0	0,163
348,5	0,163
349,0	0,163
349,5	0,163
350,0	0,162
350,5	0,162
351,0	0,162
351,5	0,162
352,0	0,161
352,5	0,161
353,0	0,161
353,5	0,161
354,0	0,161
354,5	0,161
355,0	0,161
355,5	0,161
356,0	0,161
356,5	0,161
357,0	0,161
357,5	0,161
358,0	0,161
358,5	0,161
359,0	0,161
359,5	0,161
360,0	0,160
360,5	0,160
361,0	0,160
361,5	0,160
362,0	0,159
362,5	0,159
363,0	0,159
363,5	0,160
364,0	0,160
364,5	0,159
365,0	0,159
365,5	0,159
366,0	0,159
366,5	0,159
367,0	0,160
367,5	0,160
368,0	0,159
368,5	0,158
369,0	0,158
369,5	0,157
370,0	0,157
370,5	0,157
371,0	0,156
371,5	0,156
372,0	0,156
372,5	0,156
373,0	0,156
373,5	0,156
374,0	0,155
374,5	0,156
375,0	0,155
375,5	0,155
376,0	0,155
376,5	0,156
377,0	0,155
377,5	0,155
378,0	0,155
378,5	0,154
379,0	0,154
379,5	0,154
380,0	0,154
380,5	0,154
381,0	0,154
381,5	0,153
382,0	0,153
382,5	0,153
383,0	0,153
383,5	0,153
384,0	0,152
384,5	0,152
385,0	0,152
385,5	0,152
386,0	0,152
386,5	0,152
387,0	0,151
387,5	0,151
388,0	0,150
388,5	0,150
389,0	0,150
389,5	0,150
390,0	0,151
390,5	0,151
391,0	0,151
391,5	0,150
392,0	0,150
392,5	0,150
393,0	0,150
393,5	0,149
394,0	0,149
394,5	0,150
395,0	0,149
395,5	0,149
396,0	0,149
396,5	0,148
397,0	0,148
397,5	0,148
398,0	0,148
398,5	0,147
399,0	0,148
399,5	0,148
400,0	0,148
400,5	0,148
401,0	0,147
401,5	0,147
402,0	0,147
402,5	0,146
403,0	0,146
403,5	0,145
404,0	0,145
404,5	0,145
405,0	0,145
405,5	0,145
406,0	0,145
406,5	0,145
407,0	0,145
407,5	0,144
408,0	0,144
408,5	0,144
409,0	0,144
409,5	0,144
410,0	0,144
410,5	0,144
411,0	0,144
411,5	0,144
412,0	0,144
412,5	0,143
413,0	0,143
413,5	0,142
414,0	0,142
414,5	0,141
415,0	0,141
415,5	0,141
416,0	0,141
416,5	0,142
417,0	0,142
417,5	0,142
418,0	0,142
418,5	0,141
419,0	0,141
419,5	0,140
420,0	0,140
420,5	0,140
421,0	0,140
421,5	0,140
422,0	0,140
422,5	0,140
423,0	0,140
423,5	0,140
424,0	0,140
424,5	0,139
425,0	0,139
425,5	0,139
426,0	0,139
426,5	0,139
427,0	0,139
427,5	0,139
428,0	0,139
428,5	0,138
429,0	0,138
429,5	0,138
430,0	0,138
430,5	0,138
431,0	0,138
431,5	0,138
432,0	0,138
432,5	0,138
433,0	0,137
433,5	0,137
434,0	0,137
434,5	0,137
435,0	0,136
435,5	0,136
436,0	0,136
436,5	0,136
437,0	0,136
437,5	0,136
438,0	0,136
438,5	0,136
439,0	0,136
439,5	0,135
440,0	0,135
440,5	0,134
441,0	0,134
441,5	0,134
442,0	0,134
442,5	0,135
443,0	0,135
443,5	0,135
444,0	0,135
444,5	0,135
445,0	0,134
445,5	0,134
446,0	0,134
446,5	0,134
447,0	0,134
447,5	0,134
448,0	0,134
448,5	0,134
449,0	0,134
449,5	0,133
450,0	0,133
450,5	0,133
451,0	0,133
451,5	0,133
452,0	0,133
452,5	0,133
453,0	0,134
453,5	0,133
454,0	0,133
454,5	0,133
455,0	0,133
455,5	0,133
456,0	0,132
456,5	0,132
457,0	0,132
457,5	0,132
458,0	0,132
458,5	0,132
459,0	0,132
459,5	0,132
460,0	0,133
460,5	0,133
461,0	0,133
461,5	0,133
462,0	0,133
462,5	0,133
463,0	0,133
463,5	0,133
464,0	0,133
464,5	0,133
465,0	0,133
465,5	0,133
466,0	0,133
466,5	0,133
467,0	0,133
467,5	0,133
468,0	0,133
468,5	0,133
469,0	0,133
469,5	0,133
470,0	0,133
470,5	0,133
471,0	0,133
471,5	0,133
472,0	0,133
472,5	0,133
473,0	0,134
473,5	0,134
474,0	0,134
474,5	0,134
475,0	0,134
475,5	0,133
476,0	0,133
476,5	0,133
477,0	0,133
477,5	0,134
478,0	0,134
478,5	0,134
479,0	0,134
479,5	0,134
480,0	0,135
480,5	0,135
481,0	0,136
481,5	0,137
482,0	0,137
482,5	0,137
483,0	0,137
483,5	0,137
484,0	0,138
484,5	0,138
485,0	0,139
485,5	0,140
486,0	0,140
486,5	0,141
487,0	0,141
487,5	0,141
488,0	0,142
488,5	0,142
489,0	0,143
489,5	0,143
490,0	0,143
490,5	0,144
491,0	0,144
491,5	0,145
492,0	0,146
492,5	0,147
493,0	0,147
493,5	0,148
494,0	0,149
494,5	0,149
495,0	0,150
495,5	0,151
496,0	0,151
496,5	0,152
497,0	0,152
497,5	0,153
498,0	0,153
498,5	0,154
499,0	0,155
499,5	0,155
500,0	0,157
500,5	0,157
501,0	0,158
501,5	0,159
502,0	0,159
502,5	0,160
503,0	0,160
503,5	0,161
504,0	0,162
504,5	0,163
505,0	0,164
505,5	0,164
506,0	0,164
506,5	0,165
507,0	0,165
507,5	0,166
508,0	0,166
508,5	0,167
509,0	0,167
509,5	0,168
510,0	0,168
510,5	0,169
511,0	0,169
511,5	0,169
512,0	0,169
512,5	0,170
513,0	0,170
513,5	0,170
514,0	0,170
514,5	0,171
515,0	0,171
515,5	0,171
516,0	0,171
516,5	0,171
517,0	0,171
517,5	0,171
518,0	0,171
518,5	0,171
519,0	0,171
519,5	0,171
520,0	0,172
520,5	0,172
521,0	0,172
521,5	0,172
522,0	0,172
522,5	0,171
523,0	0,170
523,5	0,170
524,0	0,169
524,5	0,169
525,0	0,169
525,5	0,168
526,0	0,169
526,5	0,168
527,0	0,168
527,5	0,167
528,0	0,167
528,5	0,166
529,0	0,166
529,5	0,167
530,0	0,166
530,5	0,166
531,0	0,166
531,5	0,165
532,0	0,164
532,5	0,163
533,0	0,163
533,5	0,162
534,0	0,162
534,5	0,161
535,0	0,161
535,5	0,160
536,0	0,160
536,5	0,159
537,0	0,159
537,5	0,159
538,0	0,158
538,5	0,158
539,0	0,157
539,5	0,156
540,0	0,155
540,5	0,154
541,0	0,154
541,5	0,154
542,0	0,153
542,5	0,152
543,0	0,152
543,5	0,151
544,0	0,151
544,5	0,150
545,0	0,150
545,5	0,150
546,0	0,149
546,5	0,148
547,0	0,147
547,5	0,146
548,0	0,144
548,5	0,144
549,0	0,144
549,5	0,143
550,0	0,143
550,5	0,143
551,0	0,143
551,5	0,143
552,0	0,143
552,5	0,142
553,0	0,142
553,5	0,142
554,0	0,141
554,5	0,140
555,0	0,140
555,5	0,139
556,0	0,139
556,5	0,138
557,0	0,138
557,5	0,138
558,0	0,138
558,5	0,138
559,0	0,137
559,5	0,136
560,0	0,135
560,5	0,135
561,0	0,134
561,5	0,133
562,0	0,133
562,5	0,132
563,0	0,132
563,5	0,132
564,0	0,131
564,5	0,131
565,0	0,131
565,5	0,131
566,0	0,131
566,5	0,131
567,0	0,131
567,5	0,131
568,0	0,131
568,5	0,131
569,0	0,130
569,5	0,130
570,0	0,129
570,5	0,129
571,0	0,129
571,5	0,129
572,0	0,129
572,5	0,129
573,0	0,128
573,5	0,128
574,0	0,128
574,5	0,127
575,0	0,126
575,5	0,126
576,0	0,126
576,5	0,126
577,0	0,125
577,5	0,126
578,0	0,126
578,5	0,127
579,0	0,128
579,5	0,128
580,0	0,129
580,5	0,129
581,0	0,129
581,5	0,129
582,0	0,129
582,5	0,128
583,0	0,128
583,5	0,128
584,0	0,127
584,5	0,127
585,0	0,128
585,5	0,128
586,0	0,128
586,5	0,128
587,0	0,128
587,5	0,129
588,0	0,130
588,5	0,130
589,0	0,130
589,5	0,130
590,0	0,131
590,5	0,130
591,0	0,130
591,5	0,129
592,0	0,129
592,5	0,130
593,0	0,131
593,5	0,132
594,0	0,132
594,5	0,132
595,0	0,132
595,5	0,132
596,0	0,132
596,5	0,132
597,0	0,132
597,5	0,133
598,0	0,134
598,5	0,134
599,0	0,135
599,5	0,135
600,0	0,136
600,5	0,137
601,0	0,138
601,5	0,138
602,0	0,138
602,5	0,138
603,0	0,139
603,5	0,139
604,0	0,140
604,5	0,140
605,0	0,141
605,5	0,142
606,0	0,143
606,5	0,144
607,0	0,144
607,5	0,144
608,0	0,145
608,5	0,145
609,0	0,145
609,5	0,145
610,0	0,146
610,5	0,147
611,0	0,148
611,5	0,149
612,0	0,150
612,5	0,151
613,0	0,152
613,5	0,152
614,0	0,152
614,5	0,152
615,0	0,153
615,5	0,154
616,0	0,155
616,5	0,156
617,0	0,158
617,5	0,159
618,0	0,160
618,5	0,162
619,0	0,162
619,5	0,163
620,0	0,163
620,5	0,163
621,0	0,164
621,5	0,164
622,0	0,166
622,5	0,167
623,0	0,169
623,5	0,170
624,0	0,172
624,5	0,173
625,0	0,173
625,5	0,174
626,0	0,176
626,5	0,177
627,0	0,178
627,5	0,179
628,0	0,180
628,5	0,181
629,0	0,181
629,5	0,182
630,0	0,182
630,5	0,184
631,0	0,186
631,5	0,187
632,0	0,188
632,5	0,190
633,0	0,191
633,5	0,192
634,0	0,192
634,5	0,192
635,0	0,193
635,5	0,194
636,0	0,195
636,5	0,196
637,0	0,198
637,5	0,199
638,0	0,201
638,5	0,202
639,0	0,203
639,5	0,204
640,0	0,205
640,5	0,206
641,0	0,207
641,5	0,209
642,0	0,210
642,5	0,210
643,0	0,211
643,5	0,213
644,0	0,214
644,5	0,215
645,0	0,216
645,5	0,216
646,0	0,217
646,5	0,218
647,0	0,220
647,5	0,220
648,0	0,221
648,5	0,223
649,0	0,224
649,5	0,226
650,0	0,227
650,5	0,228
651,0	0,229
651,5	0,230
652,0	0,231
652,5	0,233
653,0	0,234
653,5	0,235
654,0	0,236
654,5	0,237
655,0	0,238
655,5	0,240
656,0	0,241
656,5	0,243
657,0	0,244
657,5	0,246
658,0	0,248
658,5	0,250
659,0	0,250
659,5	0,251
660,0	0,251
660,5	0,251
661,0	0,252
661,5	0,252
662,0	0,253
662,5	0,254
663,0	0,256
663,5	0,256
664,0	0,257
664,5	0,259
665,0	0,261
665,5	0,262
666,0	0,263
666,5	0,263
667,0	0,264
667,5	0,264
668,0	0,264
668,5	0,265
669,0	0,266
669,5	0,267
670,0	0,268
670,5	0,269
671,0	0,270
671,5	0,270
672,0	0,270
672,5	0,270
673,0	0,270
673,5	0,271
674,0	0,272
674,5	0,273
675,0	0,273
675,5	0,274
676,0	0,274
676,5	0,275
677,0	0,275
677,5	0,276
678,0	0,276
678,5	0,277
679,0	0,278
679,5	0,279
680,0	0,278
680,5	0,278
681,0	0,277
681,5	0,277
682,0	0,278
682,5	0,278
683,0	0,280
683,5	0,280
684,0	0,280
684,5	0,280
685,0	0,279
685,5	0,279
686,0	0,279
686,5	0,279
687,0	0,280
687,5	0,281
688,0	0,282
688,5	0,281
689,0	0,281
689,5	0,281
690,0	0,281
690,5	0,281
691,0	0,280
691,5	0,279
692,0	0,278
692,5	0,277
693,0	0,277
693,5	0,276
694,0	0,276
694,5	0,276
695,0	0,276
695,5	0,276
696,0	0,277
696,5	0,277
697,0	0,278
697,5	0,278
698,0	0,278
698,5	0,277
699,0	0,276
699,5	0,275
700,0	0,274
700,5	0,272
701,0	0,272
701,5	0,271
702,0	0,272
702,5	0,272
703,0	0,272
703,5	0,272
704,0	0,273
704,5	0,272
705,0	0,271
705,5	0,270
706,0	0,269
706,5	0,267
707,0	0,266
707,5	0,264
708,0	0,263
708,5	0,263
709,0	0,264
709,5	0,263
710,0	0,264
710,5	0,264
711,0	0,264
711,5	0,263
712,0	0,262
712,5	0,261
713,0	0,260
713,5	0,258
714,0	0,258
714,5	0,258
715,0	0,258
715,5	0,258
716,0	0,258
716,5	0,256
717,0	0,255
717,5	0,253
718,0	0,251
718,5	0,250
719,0	0,250
719,5	0,250
720,0	0,250
720,5	0,249
721,0	0,248
721,5	0,247
722,0	0,247
722,5	0,247
723,0	0,247
723,5	0,246
724,0	0,245
724,5	0,244
725,0	0,242
725,5	0,241
726,0	0,240
726,5	0,240
727,0	0,239
727,5	0,239
728,0	0,238
728,5	0,236
729,0	0,235
729,5	0,235
730,0	0,235
730,5	0,235
731,0	0,234
731,5	0,232
732,0	0,231
732,5	0,229
733,0	0,227
733,5	0,226
734,0	0,226
734,5	0,225
735,0	0,225
735,5	0,224
736,0	0,223
736,5	0,222
737,0	0,221
737,5	0,220
738,0	0,219
738,5	0,218
739,0	0,216
739,5	0,215
740,0	0,214
740,5	0,212
741,0	0,211
741,5	0,210
742,0	0,210
742,5	0,209
743,0	0,208
743,5	0,208
744,0	0,207
744,5	0,207
745,0	0,206
745,5	0,204
746,0	0,203
746,5	0,203
747,0	0,202
747,5	0,200
748,0	0,199
748,5	0,199
749,0	0,199
749,5	0,198
750,0	0,196
750,5	0,194
751,0	0,191
751,5	0,189
752,0	0,185
752,5	0,184
753,0	0,185
753,5	0,186
754,0	0,189
754,5	0,190
755,0	0,189
755,5	0,187
756,0	0,184
756,5	0,182
757,0	0,179
757,5	0,178
758,0	0,178
758,5	0,177
759,0	0,177
759,5	0,177
760,0	0,176
760,5	0,176
761,0	0,176
761,5	0,174
762,0	0,173
762,5	0,172
763,0	0,172
763,5	0,170
764,0	0,170
764,5	0,169
765,0	0,168
765,5	0,166
766,0	0,165
766,5	0,163
767,0	0,162
767,5	0,161
768,0	0,161
768,5	0,161
769,0	0,160
769,5	0,159
770,0	0,156
770,5	0,154
771,0	0,154
771,5	0,153
772,0	0,151
772,5	0,149
773,0	0,148
773,5	0,149
774,0	0,148
774,5	0,146
775,0	0,146
775,5	0,146
776,0	0,146
776,5	0,144
777,0	0,142
777,5	0,140
778,0	0,138
778,5	0,139
779,0	0,139
779,5	0,138
780,0	0,138
780,5	0,140
781,0	0,141
781,5	0,142
782,0	0,142
782,5	0,140
783,0	0,139
783,5	0,138
784,0	0,136
784,5	0,133
785,0	0,132
785,5	0,133
786,0	0,132
786,5	0,131
787,0	0,130
787,5	0,128
788,0	0,127
788,5	0,126
789,0	0,126
789,5	0,125
790,0	0,126
790,5	0,124
791,0	0,124
791,5	0,123
792,0	0,123
792,5	0,123
793,0	0,122
793,5	0,120
794,0	0,119
794,5	0,117
795,0	0,117
795,5	0,116
796,0	0,116
796,5	0,116
797,0	0,116
797,5	0,114
798,0	0,112
798,5	0,110
799,0	0,109
799,5	0,107
800,0	0,107
800,5	0,108
801,0	0,107
801,5	0,108
802,0	0,109
802,5	0,108
803,0	0,107
803,5	0,105
804,0	0,104
804,5	0,102
805,0	0,101
805,5	0,102
806,0	0,102
806,5	0,103
807,0	0,103
807,5	0,102
808,0	0,100
808,5	0,100
809,0	0,100
809,5	0,099
810,0	0,098
810,5	0,098
811,0	0,095
811,5	0,092
812,0	0,090
812,5	0,089
813,0	0,088
813,5	0,088
814,0	0,088
814,5	0,088
815,0	0,087
815,5	0,087
816,0	0,088
816,5	0,088
817,0	0,088
817,5	0,088
818,0	0,086
818,5	0,085
819,0	0,084
819,5	0,083
820,0	0,081
820,5	0,080
821,0	0,080
821,5	0,080
822,0	0,080
822,5	0,080
823,0	0,080
823,5	0,080
824,0	0,081
824,5	0,080
825,0	0,078
825,5	0,075
826,0	0,074
826,5	0,074
827,0	0,075
827,5	0,076
828,0	0,077
828,5	0,078
829,0	0,077
829,5	0,076
830,0	0,075
830,5	0,074
831,0	0,073
831,5	0,072
832,0	0,071
832,5	0,071
833,0	0,070
833,5	0,069
834,0	0,070
834,5	0,070
835,0	0,071
835,5	0,071
836,0	0,069
836,5	0,067
837,0	0,065
837,5	0,064
838,0	0,063
838,5	0,063
839,0	0,064
839,5	0,065
840,0	0,066
840,5	0,068
841,0	0,068
841,5	0,067
842,0	0,066
842,5	0,065
843,0	0,063
843,5	0,062
844,0	0,060
844,5	0,059
845,0	0,061
845,5	0,061
846,0	0,061
846,5	0,059
847,0	0,059
847,5	0,059
848,0	0,059
848,5	0,057
849,0	0,055
849,5	0,054
850,0	0,054


111119\s3
11/11/2019 17:00
Longitud de onda (nm)	10mm Absorbance
//WLCalib: Shift 	0,23667	
//WLCalib: 261S 	-0,08000	
//WLCalib: 362S 	-0,58000	
//WLCalib: 484S 	-0,47000	
//WLCalib: 529S 	-0,65000	
//WLCalib: 823S 	-0,29000	
//QSpecEnd: 
190,0	1,592
190,5	1,652
191,0	1,699
191,5	1,744
192,0	1,787
192,5	1,805
193,0	1,827
193,5	1,844
194,0	1,863
194,5	1,881
195,0	1,900
195,5	1,917
196,0	1,931
196,5	1,942
197,0	1,948
197,5	1,948
198,0	1,942
198,5	1,933
199,0	1,925
199,5	1,919
200,0	1,920
200,5	1,926
201,0	1,938
201,5	1,957
202,0	1,978
202,5	2,002
203,0	2,027
203,5	2,052
204,0	2,077
204,5	2,098
205,0	2,110
205,5	2,120
206,0	2,128
206,5	2,135
207,0	2,138
207,5	2,162
208,0	2,148
208,5	2,138
209,0	2,132
209,5	2,124
210,0	2,117
210,5	2,115
211,0	2,118
211,5	2,127
212,0	2,142
212,5	2,157
213,0	2,131
213,5	2,124
214,0	2,120
214,5	2,117
215,0	2,118
215,5	2,124
216,0	2,135
216,5	2,151
217,0	2,173
217,5	2,190
218,0	2,211
218,5	2,236
219,0	2,263
219,5	2,293
220,0	2,324
220,5	2,356
221,0	2,394
221,5	2,416
222,0	2,443
222,5	2,455
223,0	2,480
223,5	2,497
224,0	2,499
224,5	2,486
225,0	2,451
225,5	2,392
226,0	2,311
226,5	2,200
227,0	2,095
227,5	1,982
228,0	1,904
228,5	1,828
229,0	1,767
229,5	1,719
230,0	1,676
230,5	1,632
231,0	1,592
231,5	1,554
232,0	1,519
232,5	1,489
233,0	1,462
233,5	1,438
234,0	1,416
234,5	1,394
235,0	1,373
235,5	1,351
236,0	1,335
236,5	1,320
237,0	1,307
237,5	1,295
238,0	1,281
238,5	1,267
239,0	1,253
239,5	1,237
240,0	1,221
240,5	1,206
241,0	1,193
241,5	1,181
242,0	1,169
242,5	1,155
243,0	1,139
243,5	1,121
244,0	1,098
244,5	1,072
245,0	1,043
245,5	1,013
246,0	0,984
246,5	0,957
247,0	0,931
247,5	0,906
248,0	0,881
248,5	0,855
249,0	0,828
249,5	0,799
250,0	0,769
250,5	0,741
251,0	0,715
251,5	0,692
252,0	0,671
252,5	0,653
253,0	0,636
253,5	0,620
254,0	0,605
254,5	0,590
255,0	0,574
255,5	0,560
256,0	0,549
256,5	0,538
257,0	0,529
257,5	0,520
258,0	0,511
258,5	0,504
259,0	0,498
259,5	0,493
260,0	0,488
260,5	0,484
261,0	0,480
261,5	0,476
262,0	0,472
262,5	0,468
263,0	0,463
263,5	0,459
264,0	0,455
264,5	0,451
265,0	0,448
265,5	0,444
266,0	0,441
266,5	0,437
267,0	0,434
267,5	0,432
268,0	0,429
268,5	0,427
269,0	0,424
269,5	0,421
270,0	0,417
270,5	0,414
271,0	0,412
271,5	0,411
272,0	0,410
272,5	0,409
273,0	0,409
273,5	0,409
274,0	0,407
274,5	0,405
275,0	0,403
275,5	0,400
276,0	0,398
276,5	0,396
277,0	0,394
277,5	0,393
278,0	0,392
278,5	0,390
279,0	0,389
279,5	0,388
280,0	0,387
280,5	0,385
281,0	0,383
281,5	0,382
282,0	0,381
282,5	0,380
283,0	0,379
283,5	0,378
284,0	0,377
284,5	0,376
285,0	0,375
285,5	0,373
286,0	0,372
286,5	0,372
287,0	0,371
287,5	0,371
288,0	0,370
288,5	0,369
289,0	0,368
289,5	0,366
290,0	0,365
290,5	0,364
291,0	0,364
291,5	0,363
292,0	0,363
292,5	0,362
293,0	0,361
293,5	0,359
294,0	0,358
294,5	0,357
295,0	0,356
295,5	0,355
296,0	0,354
296,5	0,353
297,0	0,353
297,5	0,352
298,0	0,351
298,5	0,350
299,0	0,349
299,5	0,347
300,0	0,345
300,5	0,343
301,0	0,341
301,5	0,339
302,0	0,337
302,5	0,336
303,0	0,335
303,5	0,333
304,0	0,331
304,5	0,330
305,0	0,327
305,5	0,325
306,0	0,324
306,5	0,322
307,0	0,320
307,5	0,319
308,0	0,317
308,5	0,314
309,0	0,312
309,5	0,310
310,0	0,308
310,5	0,305
311,0	0,303
311,5	0,301
312,0	0,299
312,5	0,297
313,0	0,294
313,5	0,292
314,0	0,290
314,5	0,287
315,0	0,285
315,5	0,283
316,0	0,281
316,5	0,279
317,0	0,277
317,5	0,276
318,0	0,273
318,5	0,270
319,0	0,268
319,5	0,266
320,0	0,264
320,5	0,261
321,0	0,259
321,5	0,257
322,0	0,255
322,5	0,253
323,0	0,250
323,5	0,248
324,0	0,246
324,5	0,244
325,0	0,242
325,5	0,241
326,0	0,240
326,5	0,239
327,0	0,237
327,5	0,236
328,0	0,234
328,5	0,233
329,0	0,231
329,5	0,229
330,0	0,227
330,5	0,226
331,0	0,224
331,5	0,222
332,0	0,221
332,5	0,220
333,0	0,218
333,5	0,217
334,0	0,216
334,5	0,215
335,0	0,214
335,5	0,213
336,0	0,212
336,5	0,211
337,0	0,210
337,5	0,208
338,0	0,207
338,5	0,206
339,0	0,205
339,5	0,205
340,0	0,204
340,5	0,204
341,0	0,203
341,5	0,203
342,0	0,202
342,5	0,201
343,0	0,200
343,5	0,199
344,0	0,198
344,5	0,198
345,0	0,197
345,5	0,197
346,0	0,197
346,5	0,198
347,0	0,197
347,5	0,197
348,0	0,196
348,5	0,196
349,0	0,196
349,5	0,195
350,0	0,194
350,5	0,193
351,0	0,193
351,5	0,193
352,0	0,192
352,5	0,191
353,0	0,191
353,5	0,192
354,0	0,192
354,5	0,191
355,0	0,191
355,5	0,191
356,0	0,191
356,5	0,190
357,0	0,190
357,5	0,189
358,0	0,188
358,5	0,188
359,0	0,188
359,5	0,188
360,0	0,187
360,5	0,187
361,0	0,187
361,5	0,187
362,0	0,186
362,5	0,186
363,0	0,187
363,5	0,187
364,0	0,187
364,5	0,187
365,0	0,186
365,5	0,186
366,0	0,185
366,5	0,184
367,0	0,183
367,5	0,183
368,0	0,182
368,5	0,182
369,0	0,182
369,5	0,182
370,0	0,181
370,5	0,181
371,0	0,181
371,5	0,181
372,0	0,181
372,5	0,180
373,0	0,180
373,5	0,180
374,0	0,180
374,5	0,179
375,0	0,179
375,5	0,178
376,0	0,178
376,5	0,178
377,0	0,178
377,5	0,178
378,0	0,178
378,5	0,178
379,0	0,178
379,5	0,177
380,0	0,177
380,5	0,177
381,0	0,177
381,5	0,177
382,0	0,176
382,5	0,176
383,0	0,175
383,5	0,175
384,0	0,175
384,5	0,174
385,0	0,174
385,5	0,174
386,0	0,174
386,5	0,174
387,0	0,174
387,5	0,173
388,0	0,173
388,5	0,173
389,0	0,173
389,5	0,173
390,0	0,173
390,5	0,173
391,0	0,172
391,5	0,172
392,0	0,172
392,5	0,172
393,0	0,171
393,5	0,171
394,0	0,171
394,5	0,171
395,0	0,171
395,5	0,171
396,0	0,170
396,5	0,170
397,0	0,170
397,5	0,170
398,0	0,170
398,5	0,170
399,0	0,170
399,5	0,169
400,0	0,169
400,5	0,168
401,0	0,168
401,5	0,168
402,0	0,167
402,5	0,167
403,0	0,167
403,5	0,167
404,0	0,167
404,5	0,166
405,0	0,166
405,5	0,166
406,0	0,165
406,5	0,165
407,0	0,165
407,5	0,165
408,0	0,165
408,5	0,165
409,0	0,166
409,5	0,166
410,0	0,166
410,5	0,165
411,0	0,165
411,5	0,164
412,0	0,164
412,5	0,164
413,0	0,163
413,5	0,163
414,0	0,163
414,5	0,163
415,0	0,163
415,5	0,163
416,0	0,163
416,5	0,163
417,0	0,163
417,5	0,163
418,0	0,162
418,5	0,162
419,0	0,161
419,5	0,161
420,0	0,161
420,5	0,161
421,0	0,161
421,5	0,161
422,0	0,161
422,5	0,161
423,0	0,161
423,5	0,161
424,0	0,161
424,5	0,161
425,0	0,161
425,5	0,160
426,0	0,160
426,5	0,160
427,0	0,160
427,5	0,159
428,0	0,159
428,5	0,159
429,0	0,159
429,5	0,159
430,0	0,159
430,5	0,159
431,0	0,158
431,5	0,158
432,0	0,158
432,5	0,158
433,0	0,157
433,5	0,157
434,0	0,157
434,5	0,157
435,0	0,157
435,5	0,157
436,0	0,157
436,5	0,157
437,0	0,157
437,5	0,156
438,0	0,156
438,5	0,156
439,0	0,156
439,5	0,155
440,0	0,155
440,5	0,155
441,0	0,155
441,5	0,155
442,0	0,155
442,5	0,155
443,0	0,155
443,5	0,156
444,0	0,155
444,5	0,155
445,0	0,155
445,5	0,154
446,0	0,154
446,5	0,154
447,0	0,154
447,5	0,155
448,0	0,155
448,5	0,155
449,0	0,155
449,5	0,154
450,0	0,154
450,5	0,154
451,0	0,154
451,5	0,154
452,0	0,154
452,5	0,154
453,0	0,154
453,5	0,154
454,0	0,154
454,5	0,154
455,0	0,154
455,5	0,154
456,0	0,154
456,5	0,154
457,0	0,154
457,5	0,154
458,0	0,154
458,5	0,154
459,0	0,154
459,5	0,154
460,0	0,154
460,5	0,154
461,0	0,154
461,5	0,154
462,0	0,154
462,5	0,155
463,0	0,155
463,5	0,155
464,0	0,155
464,5	0,156
465,0	0,155
465,5	0,156
466,0	0,156
466,5	0,156
467,0	0,156
467,5	0,156
468,0	0,156
468,5	0,156
469,0	0,155
469,5	0,155
470,0	0,155
470,5	0,156
471,0	0,156
471,5	0,157
472,0	0,157
472,5	0,157
473,0	0,158
473,5	0,158
474,0	0,158
474,5	0,158
475,0	0,158
475,5	0,158
476,0	0,158
476,5	0,158
477,0	0,158
477,5	0,158
478,0	0,159
478,5	0,159
479,0	0,159
479,5	0,159
480,0	0,160
480,5	0,161
481,0	0,162
481,5	0,162
482,0	0,162
482,5	0,162
483,0	0,163
483,5	0,163
484,0	0,164
484,5	0,165
485,0	0,165
485,5	0,166
486,0	0,167
486,5	0,167
487,0	0,168
487,5	0,169
488,0	0,170
488,5	0,171
489,0	0,172
489,5	0,172
490,0	0,173
490,5	0,174
491,0	0,174
491,5	0,175
492,0	0,176
492,5	0,177
493,0	0,178
493,5	0,179
494,0	0,180
494,5	0,181
495,0	0,182
495,5	0,184
496,0	0,185
496,5	0,186
497,0	0,187
497,5	0,188
498,0	0,189
498,5	0,189
499,0	0,190
499,5	0,191
500,0	0,193
500,5	0,194
501,0	0,196
501,5	0,197
502,0	0,198
502,5	0,199
503,0	0,201
503,5	0,201
504,0	0,203
504,5	0,204
505,0	0,205
505,5	0,207
506,0	0,209
506,5	0,209
507,0	0,210
507,5	0,211
508,0	0,212
508,5	0,213
509,0	0,215
509,5	0,216
510,0	0,217
510,5	0,218
511,0	0,219
511,5	0,219
512,0	0,220
512,5	0,220
513,0	0,221
513,5	0,222
514,0	0,223
514,5	0,223
515,0	0,224
515,5	0,225
516,0	0,225
516,5	0,225
517,0	0,226
517,5	0,226
518,0	0,227
518,5	0,228
519,0	0,229
519,5	0,230
520,0	0,231
520,5	0,231
521,0	0,231
521,5	0,231
522,0	0,231
522,5	0,230
523,0	0,230
523,5	0,230
524,0	0,230
524,5	0,230
525,0	0,230
525,5	0,230
526,0	0,231
526,5	0,231
527,0	0,231
527,5	0,230
528,0	0,230
528,5	0,230
529,0	0,230
529,5	0,230
530,0	0,229
530,5	0,229
531,0	0,229
531,5	0,229
532,0	0,229
532,5	0,229
533,0	0,228
533,5	0,228
534,0	0,228
534,5	0,227
535,0	0,226
535,5	0,225
536,0	0,225
536,5	0,225
537,0	0,225
537,5	0,225
538,0	0,224
538,5	0,224
539,0	0,223
539,5	0,222
540,0	0,221
540,5	0,220
541,0	0,220
541,5	0,219
542,0	0,219
542,5	0,218
543,0	0,218
543,5	0,217
544,0	0,217
544,5	0,216
545,0	0,216
545,5	0,215
546,0	0,215
546,5	0,214
547,0	0,213
547,5	0,212
548,0	0,212
548,5	0,212
549,0	0,211
549,5	0,211
550,0	0,211
550,5	0,210
551,0	0,210
551,5	0,209
552,0	0,208
552,5	0,207
553,0	0,207
553,5	0,206
554,0	0,206
554,5	0,206
555,0	0,205
555,5	0,205
556,0	0,205
556,5	0,205
557,0	0,205
557,5	0,204
558,0	0,204
558,5	0,203
559,0	0,203
559,5	0,202
560,0	0,202
560,5	0,201
561,0	0,201
561,5	0,201
562,0	0,200
562,5	0,200
563,0	0,201
563,5	0,200
564,0	0,200
564,5	0,200
565,0	0,200
565,5	0,200
566,0	0,199
566,5	0,199
567,0	0,199
567,5	0,199
568,0	0,198
568,5	0,197
569,0	0,197
569,5	0,198
570,0	0,198
570,5	0,198
571,0	0,198
571,5	0,198
572,0	0,198
572,5	0,198
573,0	0,197
573,5	0,197
574,0	0,197
574,5	0,197
575,0	0,197
575,5	0,197
576,0	0,196
576,5	0,196
577,0	0,196
577,5	0,196
578,0	0,196
578,5	0,197
579,0	0,197
579,5	0,197
580,0	0,197
580,5	0,198
581,0	0,198
581,5	0,198
582,0	0,198
582,5	0,197
583,0	0,197
583,5	0,197
584,0	0,197
584,5	0,197
585,0	0,197
585,5	0,197
586,0	0,197
586,5	0,197
587,0	0,197
587,5	0,197
588,0	0,197
588,5	0,197
589,0	0,198
589,5	0,198
590,0	0,198
590,5	0,198
591,0	0,198
591,5	0,198
592,0	0,199
592,5	0,199
593,0	0,199
593,5	0,200
594,0	0,200
594,5	0,200
595,0	0,199
595,5	0,199
596,0	0,199
596,5	0,199
597,0	0,199
597,5	0,199
598,0	0,200
598,5	0,199
599,0	0,199
599,5	0,198
600,0	0,197
600,5	0,198
601,0	0,199
601,5	0,200
602,0	0,200
602,5	0,202
603,0	0,202
603,5	0,201
604,0	0,201
604,5	0,200
605,0	0,200
605,5	0,200
606,0	0,200
606,5	0,201
607,0	0,201
607,5	0,201
608,0	0,201
608,5	0,201
609,0	0,201
609,5	0,202
610,0	0,202
610,5	0,203
611,0	0,204
611,5	0,204
612,0	0,204
612,5	0,204
613,0	0,205
613,5	0,204
614,0	0,204
614,5	0,204
615,0	0,204
615,5	0,204
616,0	0,204
616,5	0,204
617,0	0,204
617,5	0,205
618,0	0,205
618,5	0,206
619,0	0,206
619,5	0,205
620,0	0,205
620,5	0,205
621,0	0,205
621,5	0,205
622,0	0,205
622,5	0,206
623,0	0,206
623,5	0,207
624,0	0,207
624,5	0,207
625,0	0,208
625,5	0,208
626,0	0,209
626,5	0,208
627,0	0,208
627,5	0,208
628,0	0,208
628,5	0,209
629,0	0,210
629,5	0,211
630,0	0,211
630,5	0,211
631,0	0,211
631,5	0,210
632,0	0,210
632,5	0,210
633,0	0,209
633,5	0,209
634,0	0,208
634,5	0,208
635,0	0,208
635,5	0,208
636,0	0,208
636,5	0,208
637,0	0,209
637,5	0,210
638,0	0,210
638,5	0,210
639,0	0,210
639,5	0,210
640,0	0,209
640,5	0,209
641,0	0,208
641,5	0,208
642,0	0,208
642,5	0,208
643,0	0,208
643,5	0,209
644,0	0,210
644,5	0,211
645,0	0,210
645,5	0,210
646,0	0,210
646,5	0,210
647,0	0,210
647,5	0,210
648,0	0,211
648,5	0,211
649,0	0,211
649,5	0,210
650,0	0,209
650,5	0,208
651,0	0,207
651,5	0,207
652,0	0,207
652,5	0,208
653,0	0,210
653,5	0,210
654,0	0,209
654,5	0,209
655,0	0,210
655,5	0,209
656,0	0,209
656,5	0,209
657,0	0,209
657,5	0,209
658,0	0,210
658,5	0,209
659,0	0,209
659,5	0,209
660,0	0,209
660,5	0,208
661,0	0,208
661,5	0,208
662,0	0,207
662,5	0,207
663,0	0,206
663,5	0,205
664,0	0,204
664,5	0,204
665,0	0,204
665,5	0,204
666,0	0,203
666,5	0,203
667,0	0,203
667,5	0,202
668,0	0,202
668,5	0,200
669,0	0,200
669,5	0,199
670,0	0,199
670,5	0,198
671,0	0,198
671,5	0,197
672,0	0,197
672,5	0,196
673,0	0,195
673,5	0,194
674,0	0,193
674,5	0,192
675,0	0,191
675,5	0,190
676,0	0,189
676,5	0,189
677,0	0,188
677,5	0,188
678,0	0,188
678,5	0,187
679,0	0,188
679,5	0,188
680,0	0,188
680,5	0,188
681,0	0,187
681,5	0,186
682,0	0,186
682,5	0,186
683,0	0,185
683,5	0,184
684,0	0,183
684,5	0,182
685,0	0,181
685,5	0,180
686,0	0,179
686,5	0,179
687,0	0,179
687,5	0,179
688,0	0,178
688,5	0,177
689,0	0,176
689,5	0,176
690,0	0,175
690,5	0,174
691,0	0,173
691,5	0,173
692,0	0,171
692,5	0,168
693,0	0,167
693,5	0,166
694,0	0,165
694,5	0,164
695,0	0,163
695,5	0,163
696,0	0,163
696,5	0,163
697,0	0,162
697,5	0,161
698,0	0,161
698,5	0,160
699,0	0,159
699,5	0,159
700,0	0,158
700,5	0,157
701,0	0,156
701,5	0,155
702,0	0,154
702,5	0,153
703,0	0,152
703,5	0,152
704,0	0,152
704,5	0,151
705,0	0,149
705,5	0,147
706,0	0,145
706,5	0,144
707,0	0,144
707,5	0,143
708,0	0,144
708,5	0,144
709,0	0,144
709,5	0,144
710,0	0,143
710,5	0,143
711,0	0,142
711,5	0,143
712,0	0,142
712,5	0,142
713,0	0,141
713,5	0,139
714,0	0,138
714,5	0,137
715,0	0,136
715,5	0,135
716,0	0,134
716,5	0,132
717,0	0,131
717,5	0,129
718,0	0,128
718,5	0,128
719,0	0,127
719,5	0,127
720,0	0,127
720,5	0,128
721,0	0,127
721,5	0,126
722,0	0,125
722,5	0,125
723,0	0,125
723,5	0,124
724,0	0,122
724,5	0,121
725,0	0,121
725,5	0,120
726,0	0,120
726,5	0,119
727,0	0,119
727,5	0,118
728,0	0,117
728,5	0,115
729,0	0,114
729,5	0,114
730,0	0,114
730,5	0,114
731,0	0,114
731,5	0,113
732,0	0,112
732,5	0,111
733,0	0,109
733,5	0,107
734,0	0,106
734,5	0,107
735,0	0,107
735,5	0,107
736,0	0,107
736,5	0,107
737,0	0,107
737,5	0,107
738,0	0,105
738,5	0,103
739,0	0,102
739,5	0,101
740,0	0,100
740,5	0,100
741,0	0,099
741,5	0,098
742,0	0,098
742,5	0,097
743,0	0,096
743,5	0,095
744,0	0,094
744,5	0,094
745,0	0,094
745,5	0,093
746,0	0,092
746,5	0,092
747,0	0,091
747,5	0,090
748,0	0,089
748,5	0,088
749,0	0,089
749,5	0,090
750,0	0,090
750,5	0,089
751,0	0,087
751,5	0,084
752,0	0,082
752,5	0,081
753,0	0,079
753,5	0,080
754,0	0,082
754,5	0,083
755,0	0,082
755,5	0,082
756,0	0,081
756,5	0,079
757,0	0,077
757,5	0,076
758,0	0,075
758,5	0,075
759,0	0,074
759,5	0,075
760,0	0,075
760,5	0,076
761,0	0,077
761,5	0,077
762,0	0,076
762,5	0,075
763,0	0,074
763,5	0,071
764,0	0,070
764,5	0,070
765,0	0,070
765,5	0,070
766,0	0,070
766,5	0,069
767,0	0,069
767,5	0,068
768,0	0,067
768,5	0,067
769,0	0,066
769,5	0,066
770,0	0,065
770,5	0,064
771,0	0,064
771,5	0,063
772,0	0,063
772,5	0,062
773,0	0,061
773,5	0,061
774,0	0,060
774,5	0,059
775,0	0,059
775,5	0,060
776,0	0,059
776,5	0,058
777,0	0,057
777,5	0,055
778,0	0,054
778,5	0,054
779,0	0,052
779,5	0,051
780,0	0,051
780,5	0,052
781,0	0,053
781,5	0,053
782,0	0,054
782,5	0,054
783,0	0,054
783,5	0,054
784,0	0,054
784,5	0,054
785,0	0,052
785,5	0,053
786,0	0,052
786,5	0,050
787,0	0,049
787,5	0,047
788,0	0,048
788,5	0,049
789,0	0,051
789,5	0,051
790,0	0,051
790,5	0,049
791,0	0,047
791,5	0,044
792,0	0,042
792,5	0,041
793,0	0,041
793,5	0,041
794,0	0,041
794,5	0,041
795,0	0,043
795,5	0,042
796,0	0,041
796,5	0,041
797,0	0,041
797,5	0,041
798,0	0,041
798,5	0,040
799,0	0,039
799,5	0,038
800,0	0,038
800,5	0,037
801,0	0,037
801,5	0,036
802,0	0,038
802,5	0,040
803,0	0,042
803,5	0,042
804,0	0,042
804,5	0,041
805,0	0,040
805,5	0,041
806,0	0,039
806,5	0,038
807,0	0,038
807,5	0,037
808,0	0,037
808,5	0,036
809,0	0,036
809,5	0,035
810,0	0,035
810,5	0,034
811,0	0,032
811,5	0,031
812,0	0,029
812,5	0,028
813,0	0,027
813,5	0,026
814,0	0,025
814,5	0,024
815,0	0,024
815,5	0,025
816,0	0,027
816,5	0,029
817,0	0,030
817,5	0,032
818,0	0,032
818,5	0,031
819,0	0,029
819,5	0,028
820,0	0,025
820,5	0,024
821,0	0,023
821,5	0,024
822,0	0,026
822,5	0,028
823,0	0,029
823,5	0,030
824,0	0,030
824,5	0,029
825,0	0,026
825,5	0,023
826,0	0,022
826,5	0,023
827,0	0,025
827,5	0,026
828,0	0,027
828,5	0,027
829,0	0,027
829,5	0,026
830,0	0,025
830,5	0,023
831,0	0,023
831,5	0,022
832,0	0,022
832,5	0,022
833,0	0,022
833,5	0,021
834,0	0,023
834,5	0,024
835,0	0,026
835,5	0,027
836,0	0,027
836,5	0,027
837,0	0,025
837,5	0,023
838,0	0,020
838,5	0,018
839,0	0,017
839,5	0,016
840,0	0,016
840,5	0,018
841,0	0,019
841,5	0,021
842,0	0,021
842,5	0,021
843,0	0,021
843,5	0,020
844,0	0,019
844,5	0,018
845,0	0,017
845,5	0,016
846,0	0,015
846,5	0,014
847,0	0,013
847,5	0,014
848,0	0,014
848,5	0,014
849,0	0,015
849,5	0,017
850,0	0,015


111119\sem
11/11/2019 17:06
Longitud de onda (nm)	10mm Absorbance
//WLCalib: Shift 	0,23667	
//WLCalib: 261S 	-0,08000	
//WLCalib: 362S 	-0,58000	
//WLCalib: 484S 	-0,47000	
//WLCalib: 529S 	-0,65000	
//WLCalib: 823S 	-0,29000	
//QSpecEnd: 
190,0	1,612
190,5	1,665
191,0	1,709
191,5	1,747
192,0	1,779
192,5	1,804
193,0	1,837
193,5	1,849
194,0	1,852
194,5	1,860
195,0	1,871
195,5	1,885
196,0	1,899
196,5	1,915
197,0	1,928
197,5	1,940
198,0	1,954
198,5	1,935
199,0	1,925
199,5	1,919
200,0	1,920
200,5	1,926
201,0	1,938
201,5	1,957
202,0	1,978
202,5	2,002
203,0	2,027
203,5	2,052
204,0	2,076
204,5	2,096
205,0	2,113
205,5	2,126
206,0	2,136
206,5	2,144
207,0	2,149
207,5	2,153
208,0	2,156
208,5	2,158
209,0	2,159
209,5	2,156
210,0	2,168
210,5	2,150
211,0	2,135
211,5	2,124
212,0	2,116
212,5	2,110
213,0	2,106
213,5	2,106
214,0	2,112
214,5	2,121
215,0	2,138
215,5	2,130
216,0	2,139
216,5	2,153
217,0	2,170
217,5	2,190
218,0	2,211
218,5	2,239
219,0	2,264
219,5	2,290
220,0	2,318
220,5	2,348
221,0	2,377
221,5	2,408
222,0	2,437
222,5	2,463
223,0	2,488
223,5	2,520
224,0	2,564
224,5	2,598
225,0	2,593
225,5	2,559
226,0	2,491
226,5	2,399
227,0	2,291
227,5	2,183
228,0	2,087
228,5	2,019
229,0	1,986
229,5	1,944
230,0	1,902
230,5	1,861
231,0	1,820
231,5	1,782
232,0	1,748
232,5	1,717
233,0	1,688
233,5	1,665
234,0	1,644
234,5	1,625
235,0	1,613
235,5	1,601
236,0	1,592
236,5	1,584
237,0	1,573
237,5	1,561
238,0	1,551
238,5	1,541
239,0	1,531
239,5	1,523
240,0	1,517
240,5	1,511
241,0	1,505
241,5	1,500
242,0	1,495
242,5	1,493
243,0	1,488
243,5	1,484
244,0	1,479
244,5	1,472
245,0	1,464
245,5	1,456
246,0	1,449
246,5	1,445
247,0	1,443
247,5	1,441
248,0	1,438
248,5	1,438
249,0	1,435
249,5	1,430
250,0	1,424
250,5	1,418
251,0	1,414
251,5	1,409
252,0	1,404
252,5	1,397
253,0	1,393
253,5	1,389
254,0	1,385
254,5	1,377
255,0	1,371
255,5	1,366
256,0	1,363
256,5	1,358
257,0	1,356
257,5	1,353
258,0	1,351
258,5	1,348
259,0	1,346
259,5	1,342
260,0	1,340
260,5	1,337
261,0	1,333
261,5	1,330
262,0	1,327
262,5	1,322
263,0	1,318
263,5	1,314
264,0	1,311
264,5	1,310
265,0	1,307
265,5	1,304
266,0	1,301
266,5	1,296
267,0	1,291
267,5	1,288
268,0	1,284
268,5	1,281
269,0	1,278
269,5	1,273
270,0	1,268
270,5	1,263
271,0	1,262
271,5	1,258
272,0	1,257
272,5	1,256
273,0	1,256
273,5	1,255
274,0	1,253
274,5	1,247
275,0	1,241
275,5	1,235
276,0	1,229
276,5	1,221
277,0	1,218
277,5	1,214
278,0	1,211
278,5	1,209
279,0	1,206
279,5	1,204
280,0	1,201
280,5	1,197
281,0	1,194
281,5	1,190
282,0	1,187
282,5	1,182
283,0	1,177
283,5	1,173
284,0	1,169
284,5	1,165
285,0	1,161
285,5	1,156
286,0	1,153
286,5	1,150
287,0	1,146
287,5	1,144
288,0	1,140
288,5	1,137
289,0	1,135
289,5	1,131
290,0	1,128
290,5	1,123
291,0	1,120
291,5	1,116
292,0	1,113
292,5	1,109
293,0	1,105
293,5	1,102
294,0	1,100
294,5	1,097
295,0	1,095
295,5	1,091
296,0	1,089
296,5	1,086
297,0	1,084
297,5	1,082
298,0	1,079
298,5	1,076
299,0	1,074
299,5	1,071
300,0	1,067
300,5	1,062
301,0	1,058
301,5	1,056
302,0	1,054
302,5	1,051
303,0	1,048
303,5	1,045
304,0	1,043
304,5	1,040
305,0	1,037
305,5	1,035
306,0	1,032
306,5	1,030
307,0	1,027
307,5	1,023
308,0	1,020
308,5	1,018
309,0	1,014
309,5	1,010
310,0	1,007
310,5	1,004
311,0	1,000
311,5	0,998
312,0	0,994
312,5	0,992
313,0	0,990
313,5	0,988
314,0	0,985
314,5	0,982
315,0	0,979
315,5	0,976
316,0	0,972
316,5	0,969
317,0	0,965
317,5	0,962
318,0	0,959
318,5	0,956
319,0	0,951
319,5	0,947
320,0	0,944
320,5	0,941
321,0	0,937
321,5	0,934
322,0	0,929
322,5	0,926
323,0	0,922
323,5	0,919
324,0	0,914
324,5	0,912
325,0	0,909
325,5	0,907
326,0	0,905
326,5	0,903
327,0	0,901
327,5	0,898
328,0	0,894
328,5	0,892
329,0	0,889
329,5	0,886
330,0	0,884
330,5	0,881
331,0	0,878
331,5	0,876
332,0	0,874
332,5	0,870
333,0	0,867
333,5	0,865
334,0	0,864
334,5	0,862
335,0	0,861
335,5	0,858
336,0	0,856
336,5	0,854
337,0	0,851
337,5	0,847
338,0	0,845
338,5	0,844
339,0	0,841
339,5	0,840
340,0	0,838
340,5	0,836
341,0	0,834
341,5	0,833
342,0	0,833
342,5	0,833
343,0	0,832
343,5	0,832
344,0	0,830
344,5	0,827
345,0	0,824
345,5	0,821
346,0	0,819
346,5	0,816
347,0	0,816
347,5	0,815
348,0	0,813
348,5	0,812
349,0	0,811
349,5	0,809
350,0	0,807
350,5	0,805
351,0	0,802
351,5	0,800
352,0	0,798
352,5	0,796
353,0	0,794
353,5	0,792
354,0	0,789
354,5	0,787
355,0	0,784
355,5	0,782
356,0	0,780
356,5	0,778
357,0	0,777
357,5	0,775
358,0	0,774
358,5	0,772
359,0	0,770
359,5	0,768
360,0	0,765
360,5	0,762
361,0	0,759
361,5	0,757
362,0	0,755
362,5	0,753
363,0	0,751
363,5	0,750
364,0	0,748
364,5	0,746
365,0	0,742
365,5	0,739
366,0	0,736
366,5	0,732
367,0	0,729
367,5	0,726
368,0	0,723
368,5	0,720
369,0	0,718
369,5	0,715
370,0	0,712
370,5	0,708
371,0	0,705
371,5	0,703
372,0	0,700
372,5	0,698
373,0	0,696
373,5	0,693
374,0	0,691
374,5	0,687
375,0	0,684
375,5	0,681
376,0	0,678
376,5	0,676
377,0	0,674
377,5	0,672
378,0	0,670
378,5	0,669
379,0	0,667
379,5	0,665
380,0	0,662
380,5	0,660
381,0	0,657
381,5	0,655
382,0	0,653
382,5	0,650
383,0	0,648
383,5	0,646
384,0	0,644
384,5	0,643
385,0	0,641
385,5	0,638
386,0	0,636
386,5	0,634
387,0	0,632
387,5	0,630
388,0	0,628
388,5	0,626
389,0	0,625
389,5	0,623
390,0	0,622
390,5	0,620
391,0	0,618
391,5	0,617
392,0	0,615
392,5	0,614
393,0	0,613
393,5	0,611
394,0	0,610
394,5	0,608
395,0	0,606
395,5	0,604
396,0	0,603
396,5	0,601
397,0	0,600
397,5	0,598
398,0	0,596
398,5	0,595
399,0	0,594
399,5	0,592
400,0	0,590
400,5	0,589
401,0	0,587
401,5	0,585
402,0	0,584
402,5	0,582
403,0	0,581
403,5	0,580
404,0	0,579
404,5	0,577
405,0	0,576
405,5	0,575
406,0	0,574
406,5	0,572
407,0	0,571
407,5	0,570
408,0	0,569
408,5	0,569
409,0	0,568
409,5	0,566
410,0	0,565
410,5	0,564
411,0	0,563
411,5	0,561
412,0	0,559
412,5	0,558
413,0	0,558
413,5	0,556
414,0	0,555
414,5	0,554
415,0	0,553
415,5	0,552
416,0	0,552
416,5	0,551
417,0	0,550
417,5	0,549
418,0	0,547
418,5	0,546
419,0	0,544
419,5	0,542
420,0	0,541
420,5	0,540
421,0	0,539
421,5	0,538
422,0	0,537
422,5	0,537
423,0	0,536
423,5	0,535
424,0	0,534
424,5	0,532
425,0	0,531
425,5	0,530
426,0	0,529
426,5	0,528
427,0	0,527
427,5	0,526
428,0	0,525
428,5	0,524
429,0	0,523
429,5	0,523
430,0	0,522
430,5	0,520
431,0	0,519
431,5	0,518
432,0	0,517
432,5	0,516
433,0	0,515
433,5	0,514
434,0	0,513
434,5	0,512
435,0	0,511
435,5	0,510
436,0	0,509
436,5	0,508
437,0	0,507
437,5	0,506
438,0	0,505
438,5	0,504
439,0	0,503
439,5	0,501
440,0	0,501
440,5	0,500
441,0	0,500
441,5	0,499
442,0	0,498
442,5	0,498
443,0	0,497
443,5	0,497
444,0	0,496
444,5	0,495
445,0	0,495
445,5	0,494
446,0	0,493
446,5	0,492
447,0	0,491
447,5	0,491
448,0	0,491
448,5	0,490
449,0	0,489
449,5	0,489
450,0	0,488
450,5	0,487
451,0	0,486
451,5	0,485
452,0	0,485
452,5	0,485
453,0	0,484
453,5	0,484
454,0	0,483
454,5	0,482
455,0	0,482
455,5	0,481
456,0	0,480
456,5	0,479
457,0	0,479
457,5	0,478
458,0	0,477
458,5	0,476
459,0	0,476
459,5	0,475
460,0	0,475
460,5	0,475
461,0	0,474
461,5	0,474
462,0	0,474
462,5	0,473
463,0	0,473
463,5	0,472
464,0	0,472
464,5	0,472
465,0	0,471
465,5	0,470
466,0	0,469
466,5	0,469
467,0	0,468
467,5	0,468
468,0	0,468
468,5	0,467
469,0	0,467
469,5	0,467
470,0	0,466
470,5	0,465
471,0	0,464
471,5	0,462
472,0	0,461
472,5	0,461
473,0	0,461
473,5	0,461
474,0	0,460
474,5	0,460
475,0	0,459
475,5	0,459
476,0	0,458
476,5	0,457
477,0	0,456
477,5	0,455
478,0	0,454
478,5	0,453
479,0	0,451
479,5	0,450
480,0	0,449
480,5	0,449
481,0	0,449
481,5	0,448
482,0	0,447
482,5	0,446
483,0	0,445
483,5	0,443
484,0	0,443
484,5	0,442
485,0	0,441
485,5	0,441
486,0	0,441
486,5	0,440
487,0	0,439
487,5	0,438
488,0	0,437
488,5	0,436
489,0	0,436
489,5	0,435
490,0	0,434
490,5	0,433
491,0	0,432
491,5	0,431
492,0	0,430
492,5	0,429
493,0	0,427
493,5	0,425
494,0	0,424
494,5	0,423
495,0	0,422
495,5	0,420
496,0	0,419
496,5	0,418
497,0	0,417
497,5	0,416
498,0	0,414
498,5	0,412
499,0	0,411
499,5	0,409
500,0	0,408
500,5	0,406
501,0	0,406
501,5	0,405
502,0	0,405
502,5	0,404
503,0	0,403
503,5	0,402
504,0	0,400
504,5	0,399
505,0	0,397
505,5	0,396
506,0	0,395
506,5	0,394
507,0	0,393
507,5	0,392
508,0	0,391
508,5	0,390
509,0	0,389
509,5	0,387
510,0	0,386
510,5	0,385
511,0	0,384
511,5	0,382
512,0	0,381
512,5	0,380
513,0	0,378
513,5	0,377
514,0	0,376
514,5	0,375
515,0	0,375
515,5	0,374
516,0	0,373
516,5	0,372
517,0	0,371
517,5	0,370
518,0	0,369
518,5	0,368
519,0	0,367
519,5	0,366
520,0	0,366
520,5	0,365
521,0	0,364
521,5	0,363
522,0	0,362
522,5	0,361
523,0	0,359
523,5	0,357
524,0	0,356
524,5	0,354
525,0	0,354
525,5	0,353
526,0	0,353
526,5	0,352
527,0	0,350
527,5	0,349
528,0	0,347
528,5	0,346
529,0	0,345
529,5	0,345
530,0	0,345
530,5	0,344
531,0	0,344
531,5	0,343
532,0	0,343
532,5	0,342
533,0	0,341
533,5	0,340
534,0	0,339
534,5	0,338
535,0	0,337
535,5	0,336
536,0	0,335
536,5	0,334
537,0	0,334
537,5	0,332
538,0	0,331
538,5	0,331
539,0	0,330
539,5	0,328
540,0	0,327
540,5	0,326
541,0	0,326
541,5	0,325
542,0	0,324
542,5	0,323
543,0	0,322
543,5	0,321
544,0	0,320
544,5	0,319
545,0	0,319
545,5	0,318
546,0	0,317
546,5	0,316
547,0	0,315
547,5	0,313
548,0	0,312
548,5	0,311
549,0	0,311
549,5	0,311
550,0	0,310
550,5	0,309
551,0	0,309
551,5	0,308
552,0	0,306
552,5	0,305
553,0	0,304
553,5	0,303
554,0	0,303
554,5	0,302
555,0	0,301
555,5	0,299
556,0	0,298
556,5	0,296
557,0	0,295
557,5	0,295
558,0	0,294
558,5	0,294
559,0	0,293
559,5	0,292
560,0	0,291
560,5	0,289
561,0	0,288
561,5	0,288
562,0	0,287
562,5	0,286
563,0	0,286
563,5	0,286
564,0	0,285
564,5	0,285
565,0	0,284
565,5	0,283
566,0	0,282
566,5	0,281
567,0	0,280
567,5	0,279
568,0	0,278
568,5	0,277
569,0	0,276
569,5	0,276
570,0	0,275
570,5	0,274
571,0	0,273
571,5	0,273
572,0	0,271
572,5	0,270
573,0	0,269
573,5	0,268
574,0	0,268
574,5	0,267
575,0	0,265
575,5	0,265
576,0	0,263
576,5	0,262
577,0	0,261
577,5	0,260
578,0	0,260
578,5	0,260
579,0	0,259
579,5	0,259
580,0	0,258
580,5	0,258
581,0	0,257
581,5	0,256
582,0	0,256
582,5	0,254
583,0	0,253
583,5	0,252
584,0	0,251
584,5	0,251
585,0	0,251
585,5	0,250
586,0	0,249
586,5	0,249
587,0	0,249
587,5	0,248
588,0	0,248
588,5	0,248
589,0	0,247
589,5	0,246
590,0	0,245
590,5	0,244
591,0	0,242
591,5	0,241
592,0	0,240
592,5	0,240
593,0	0,240
593,5	0,239
594,0	0,238
594,5	0,237
595,0	0,237
595,5	0,236
596,0	0,236
596,5	0,235
597,0	0,234
597,5	0,233
598,0	0,233
598,5	0,231
599,0	0,231
599,5	0,230
600,0	0,229
600,5	0,229
601,0	0,230
601,5	0,229
602,0	0,229
602,5	0,228
603,0	0,227
603,5	0,225
604,0	0,224
604,5	0,224
605,0	0,223
605,5	0,222
606,0	0,222
606,5	0,222
607,0	0,221
607,5	0,221
608,0	0,220
608,5	0,219
609,0	0,218
609,5	0,218
610,0	0,218
610,5	0,217
611,0	0,217
611,5	0,216
612,0	0,215
612,5	0,214
613,0	0,212
613,5	0,211
614,0	0,209
614,5	0,209
615,0	0,208
615,5	0,208
616,0	0,208
616,5	0,208
617,0	0,207
617,5	0,207
618,0	0,207
618,5	0,206
619,0	0,206
619,5	0,204
620,0	0,202
620,5	0,201
621,0	0,200
621,5	0,200
622,0	0,199
622,5	0,199
623,0	0,198
623,5	0,198
624,0	0,197
624,5	0,196
625,0	0,196
625,5	0,195
626,0	0,195
626,5	0,195
627,0	0,194
627,5	0,194
628,0	0,193
628,5	0,193
629,0	0,193
629,5	0,193
630,0	0,192
630,5	0,192
631,0	0,191
631,5	0,190
632,0	0,189
632,5	0,188
633,0	0,187
633,5	0,186
634,0	0,185
634,5	0,185
635,0	0,184
635,5	0,183
636,0	0,182
636,5	0,181
637,0	0,180
637,5	0,180
638,0	0,179
638,5	0,179
639,0	0,179
639,5	0,179
640,0	0,179
640,5	0,179
641,0	0,178
641,5	0,177
642,0	0,177
642,5	0,175
643,0	0,175
643,5	0,175
644,0	0,175
644,5	0,175
645,0	0,174
645,5	0,173
646,0	0,172
646,5	0,170
647,0	0,169
647,5	0,168
648,0	0,167
648,5	0,167
649,0	0,167
649,5	0,167
650,0	0,166
650,5	0,165
651,0	0,165
651,5	0,165
652,0	0,165
652,5	0,165
653,0	0,165
653,5	0,165
654,0	0,163
654,5	0,163
655,0	0,162
655,5	0,162
656,0	0,160
656,5	0,160
657,0	0,159
657,5	0,158
658,0	0,158
658,5	0,158
659,0	0,156
659,5	0,156
660,0	0,155
660,5	0,154
661,0	0,153
661,5	0,153
662,0	0,153
662,5	0,153
663,0	0,154
663,5	0,154
664,0	0,153
664,5	0,153
665,0	0,153
665,5	0,152
666,0	0,151
666,5	0,150
667,0	0,149
667,5	0,148
668,0	0,147
668,5	0,147
669,0	0,147
669,5	0,147
670,0	0,148
670,5	0,147
671,0	0,147
671,5	0,147
672,0	0,146
672,5	0,145
673,0	0,144
673,5	0,144
674,0	0,143
674,5	0,142
675,0	0,141
675,5	0,140
676,0	0,140
676,5	0,140
677,0	0,140
677,5	0,140
678,0	0,139
678,5	0,139
679,0	0,140
679,5	0,139
680,0	0,138
680,5	0,136
681,0	0,136
681,5	0,135
682,0	0,135
682,5	0,135
683,0	0,135
683,5	0,135
684,0	0,136
684,5	0,136
685,0	0,135
685,5	0,135
686,0	0,135
686,5	0,134
687,0	0,134
687,5	0,134
688,0	0,134
688,5	0,133
689,0	0,132
689,5	0,132
690,0	0,131
690,5	0,131
691,0	0,130
691,5	0,129
692,0	0,129
692,5	0,128
693,0	0,128
693,5	0,127
694,0	0,126
694,5	0,125
695,0	0,125
695,5	0,124
696,0	0,125
696,5	0,125
697,0	0,125
697,5	0,125
698,0	0,124
698,5	0,123
699,0	0,122
699,5	0,121
700,0	0,120
700,5	0,120
701,0	0,120
701,5	0,121
702,0	0,121
702,5	0,121
703,0	0,120
703,5	0,120
704,0	0,120
704,5	0,119
705,0	0,118
705,5	0,117
706,0	0,116
706,5	0,115
707,0	0,114
707,5	0,114
708,0	0,114
708,5	0,114
709,0	0,114
709,5	0,114
710,0	0,114
710,5	0,115
711,0	0,115
711,5	0,114
712,0	0,114
712,5	0,115
713,0	0,114
713,5	0,113
714,0	0,112
714,5	0,111
715,0	0,111
715,5	0,110
716,0	0,109
716,5	0,108
717,0	0,107
717,5	0,107
718,0	0,106
718,5	0,105
719,0	0,104
719,5	0,104
720,0	0,105
720,5	0,106
721,0	0,107
721,5	0,107
722,0	0,107
722,5	0,106
723,0	0,106
723,5	0,106
724,0	0,105
724,5	0,104
725,0	0,103
725,5	0,102
726,0	0,101
726,5	0,101
727,0	0,100
727,5	0,099
728,0	0,099
728,5	0,099
729,0	0,100
729,5	0,101
730,0	0,102
730,5	0,102
731,0	0,103
731,5	0,102
732,0	0,100
732,5	0,098
733,0	0,098
733,5	0,097
734,0	0,096
734,5	0,096
735,0	0,096
735,5	0,096
736,0	0,097
736,5	0,096
737,0	0,096
737,5	0,096
738,0	0,096
738,5	0,096
739,0	0,094
739,5	0,093
740,0	0,092
740,5	0,091
741,0	0,091
741,5	0,091
742,0	0,091
742,5	0,091
743,0	0,091
743,5	0,090
744,0	0,090
744,5	0,090
745,0	0,090
745,5	0,090
746,0	0,089
746,5	0,089
747,0	0,088
747,5	0,088
748,0	0,087
748,5	0,087
749,0	0,089
749,5	0,090
750,0	0,090
750,5	0,090
751,0	0,089
751,5	0,088
752,0	0,087
752,5	0,086
753,0	0,085
753,5	0,085
754,0	0,085
754,5	0,085
755,0	0,085
755,5	0,085
756,0	0,084
756,5	0,084
757,0	0,082
757,5	0,081
758,0	0,081
758,5	0,080
759,0	0,079
759,5	0,079
760,0	0,079
760,5	0,081
761,0	0,081
761,5	0,081
762,0	0,080
762,5	0,079
763,0	0,079
763,5	0,077
764,0	0,076
764,5	0,076
765,0	0,077
765,5	0,077
766,0	0,077
766,5	0,077
767,0	0,076
767,5	0,075
768,0	0,074
768,5	0,074
769,0	0,074
769,5	0,074
770,0	0,074
770,5	0,075
771,0	0,076
771,5	0,077
772,0	0,077
772,5	0,076
773,0	0,075
773,5	0,075
774,0	0,074
774,5	0,072
775,0	0,071
775,5	0,072
776,0	0,071
776,5	0,070
777,0	0,070
777,5	0,070
778,0	0,070
778,5	0,071
779,0	0,070
779,5	0,069
780,0	0,068
780,5	0,070
781,0	0,070
781,5	0,070
782,0	0,071
782,5	0,071
783,0	0,072
783,5	0,071
784,0	0,071
784,5	0,071
785,0	0,072
785,5	0,073
786,0	0,073
786,5	0,073
787,0	0,072
787,5	0,071
788,0	0,069
788,5	0,068
789,0	0,068
789,5	0,068
790,0	0,067
790,5	0,067
791,0	0,066
791,5	0,066
792,0	0,066
792,5	0,066
793,0	0,066
793,5	0,066
794,0	0,065
794,5	0,064
795,0	0,063
795,5	0,064
796,0	0,063
796,5	0,064
797,0	0,065
797,5	0,065
798,0	0,065
798,5	0,065
799,0	0,065
799,5	0,061
800,0	0,060
800,5	0,060
801,0	0,059
801,5	0,060
802,0	0,062
802,5	0,065
803,0	0,065
803,5	0,066
804,0	0,065
804,5	0,063
805,0	0,063
805,5	0,063
806,0	0,063
806,5	0,064
807,0	0,064
807,5	0,065
808,0	0,065
808,5	0,064
809,0	0,063
809,5	0,060
810,0	0,059
810,5	0,057
811,0	0,056
811,5	0,054
812,0	0,052
812,5	0,052
813,0	0,053
813,5	0,053
814,0	0,053
814,5	0,053
815,0	0,054
815,5	0,055
816,0	0,056
816,5	0,057
817,0	0,057
817,5	0,057
818,0	0,056
818,5	0,054
819,0	0,053
819,5	0,052
820,0	0,050
820,5	0,048
821,0	0,048
821,5	0,049
822,0	0,051
822,5	0,054
823,0	0,056
823,5	0,059
824,0	0,061
824,5	0,062
825,0	0,059
825,5	0,055
826,0	0,053
826,5	0,053
827,0	0,054
827,5	0,055
828,0	0,055
828,5	0,056
829,0	0,056
829,5	0,055
830,0	0,053
830,5	0,052
831,0	0,052
831,5	0,052
832,0	0,052
832,5	0,052
833,0	0,051
833,5	0,051
834,0	0,051
834,5	0,051
835,0	0,052
835,5	0,053
836,0	0,053
836,5	0,051
837,0	0,051
837,5	0,049
838,0	0,048
838,5	0,048
839,0	0,048
839,5	0,048
840,0	0,047
840,5	0,048
841,0	0,049
841,5	0,048
842,0	0,049
842,5	0,049
843,0	0,049
843,5	0,048
844,0	0,047
844,5	0,048
845,0	0,047
845,5	0,047
846,0	0,046
846,5	0,045
847,0	0,045
847,5	0,045
848,0	0,044
848,5	0,041
849,0	0,042
849,5	0,042
850,0	0,041

